Source: Spectrum Viewer

Chart: Pulse Spectrum

Series: 
Wavelength (nm)	S (a.u.)
617.638	0.89243
617.773	0.89243
617.908	0.928287
618.043	0.906375
618.178	0.904382
618.313	0.922311
618.448	0.914343
618.583	0.890438
618.718	0.884462
618.853	0.924303
618.988	0.916335
619.123	0.908367
619.258	0.904382
619.394	0.912351
619.529	0.896414
619.664	0.898406
619.799	0.906375
619.934	0.920319
620.069	0.904382
620.204	0.954183
620.339	0.894422
620.474	0.88247
620.609	0.928287
620.744	0.912351
620.879	0.88247
621.014	0.910359
621.149	0.924303
621.284	0.920319
621.419	0.912351
621.554	0.920319
621.689	0.89243
621.825	0.932271
621.96	0.930279
622.095	0.896414
622.23	0.936255
622.365	0.922311
622.5	0.884462
622.635	0.922311
622.77	0.88247
622.905	0.888446
623.04	0.916335
623.175	0.900398
623.31	0.89243
623.445	0.916335
623.58	0.900398
623.715	0.89243
623.85	0.880478
623.985	0.912351
624.12	0.908367
624.255	0.894422
624.39	0.89243
624.525	0.910359
624.661	0.906375
624.796	0.90239
624.931	0.924303
625.066	0.906375
625.201	0.874502
625.336	0.870518
625.471	0.918327
625.606	0.906375
625.741	0.910359
625.876	0.900398
626.011	0.918327
626.146	0.896414
626.281	0.936255
626.416	0.906375
626.551	0.904382
626.686	0.908367
626.821	0.894422
626.956	0.908367
627.091	0.896414
627.226	0.906375
627.361	0.934263
627.496	0.940239
627.631	0.904382
627.766	0.89243
627.901	0.888446
628.036	0.894422
628.171	0.898406
628.307	0.914343
628.442	0.924303
628.577	0.88247
628.712	0.916335
628.847	0.888446
628.982	0.910359
629.117	0.896414
629.252	0.90239
629.387	0.906375
629.522	0.930279
629.657	0.904382
629.792	0.896414
629.927	0.906375
630.062	0.924303
630.197	0.914343
630.332	0.904382
630.467	0.914343
630.602	0.912351
630.737	0.914343
630.872	0.916335
631.007	0.914343
631.142	0.894422
631.277	0.890438
631.412	0.908367
631.547	0.926295
631.682	0.884462
631.817	0.894422
631.952	0.914343
632.087	0.890438
632.222	0.898406
632.357	0.886454
632.492	0.906375
632.627	0.924303
632.762	0.900398
632.897	0.896414
633.032	0.920319
633.167	0.886454
633.302	0.896414
633.437	0.886454
633.572	0.906375
633.707	0.878486
633.842	0.920319
633.978	0.894422
634.113	0.932271
634.248	0.876494
634.383	0.918327
634.518	0.912351
634.653	0.890438
634.788	0.918327
634.923	0.90239
635.058	0.904382
635.193	0.914343
635.328	0.888446
635.463	0.888446
635.598	0.910359
635.733	0.912351
635.868	0.914343
636.003	0.888446
636.138	0.894422
636.273	0.904382
636.408	0.926295
636.543	0.912351
636.678	0.914343
636.813	0.904382
636.948	0.900398
637.083	0.910359
637.218	0.90239
637.353	0.89243
637.488	0.916335
637.623	0.912351
637.758	0.920319
637.893	0.912351
638.028	0.904382
638.163	0.916335
638.298	0.904382
638.433	0.900398
638.568	0.886454
638.703	0.922311
638.838	0.898406
638.973	0.930279
639.108	0.886454
639.243	0.918327
639.378	0.900398
639.513	0.908367
639.648	0.908367
639.783	0.890438
639.918	0.900398
640.053	0.932271
640.188	0.912351
640.323	0.918327
640.458	0.878486
640.593	0.918327
640.728	0.876494
640.863	0.914343
640.998	0.930279
641.133	0.908367
641.268	0.904382
641.403	0.874502
641.538	0.922311
641.673	0.938247
641.808	0.918327
641.943	0.912351
642.078	0.87251
642.213	0.894422
642.348	0.888446
642.483	0.918327
642.618	0.914343
642.753	0.876494
642.888	0.928287
643.023	0.886454
643.158	0.914343
643.293	0.914343
643.428	0.916335
643.563	0.90239
643.698	0.920319
643.833	0.890438
643.968	0.916335
644.103	0.930279
644.237	0.916335
644.372	0.906375
644.507	0.880478
644.642	0.890438
644.777	0.904382
644.912	0.908367
645.047	0.924303
645.182	0.898406
645.317	0.910359
645.452	0.870518
645.587	0.90239
645.722	0.898406
645.857	0.89243
645.992	0.908367
646.127	0.910359
646.262	0.926295
646.397	0.910359
646.532	0.918327
646.667	0.920319
646.802	0.878486
646.937	0.936255
647.072	0.896414
647.207	0.912351
647.342	0.920319
647.477	0.906375
647.612	0.890438
647.747	0.878486
647.882	0.924303
648.017	0.920319
648.152	0.90239
648.287	0.89243
648.422	0.894422
648.557	0.89243
648.692	0.908367
648.827	0.888446
648.962	0.914343
649.097	0.918327
649.232	0.918327
649.367	0.886454
649.502	0.912351
649.637	0.918327
649.772	0.898406
649.906	0.898406
650.041	0.930279
650.176	0.898406
650.311	0.910359
650.446	0.896414
650.581	0.898406
650.716	0.912351
650.851	0.932271
650.986	0.87251
651.121	0.914343
651.256	0.90239
651.391	0.900398
651.526	0.88247
651.661	0.878486
651.796	0.884462
651.931	0.888446
652.066	0.906375
652.201	0.904382
652.336	0.928287
652.471	0.888446
652.606	0.930279
652.741	0.884462
652.876	0.922311
653.011	0.908367
653.146	0.88247
653.281	0.908367
653.415	0.90239
653.55	0.89243
653.685	0.890438
653.82	0.908367
653.955	0.908367
654.09	0.890438
654.225	0.890438
654.36	0.898406
654.495	0.904382
654.63	0.910359
654.765	0.89243
654.9	0.884462
655.035	0.914343
655.17	0.910359
655.305	0.900398
655.44	0.864542
655.575	0.912351
655.71	0.918327
655.845	0.910359
655.98	0.904382
656.115	0.894422
656.25	0.898406
656.384	0.928287
656.519	0.914343
656.654	0.890438
656.789	0.904382
656.924	0.878486
657.059	0.888446
657.194	0.918327
657.329	0.898406
657.464	0.916335
657.599	0.890438
657.734	0.932271
657.869	0.918327
658.004	0.900398
658.139	0.924303
658.274	0.89243
658.409	0.910359
658.544	0.912351
658.679	0.912351
658.813	0.906375
658.948	0.904382
659.083	0.904382
659.218	0.894422
659.353	0.912351
659.488	0.914343
659.623	0.896414
659.758	0.922311
659.893	0.89243
660.028	0.89243
660.163	0.890438
660.298	0.880478
660.433	0.906375
660.568	0.906375
660.703	0.878486
660.838	0.938247
660.972	0.906375
661.107	0.910359
661.242	0.88247
661.377	0.90239
661.512	0.898406
661.647	0.900398
661.782	0.894422
661.917	0.890438
662.052	0.896414
662.187	0.906375
662.322	0.924303
662.457	0.926295
662.592	0.922311
662.727	0.89243
662.862	0.916335
662.996	0.908367
663.131	0.918327
663.266	0.90239
663.401	0.918327
663.536	0.912351
663.671	0.906375
663.806	0.926295
663.941	0.896414
664.076	0.910359
664.211	0.89243
664.346	0.932271
664.481	0.898406
664.616	0.90239
664.75	0.898406
664.885	0.916335
665.02	0.880478
665.155	0.89243
665.29	0.90239
665.425	0.916335
665.56	0.90239
665.695	0.908367
665.83	0.888446
665.965	0.896414
666.1	0.900398
666.235	0.876494
666.37	0.884462
666.504	0.918327
666.639	0.896414
666.774	0.912351
666.909	0.888446
667.044	0.914343
667.179	0.926295
667.314	0.926295
667.449	0.896414
667.584	0.906375
667.719	0.920319
667.854	0.914343
667.989	0.894422
668.123	0.904382
668.258	0.904382
668.393	0.890438
668.528	0.890438
668.663	0.942231
668.798	0.924303
668.933	0.896414
669.068	0.888446
669.203	0.896414
669.338	0.904382
669.473	0.900398
669.607	0.910359
669.742	0.88247
669.877	0.89243
670.012	0.918327
670.147	0.914343
670.282	0.896414
670.417	0.910359
670.552	0.910359
670.687	0.878486
670.822	0.886454
670.957	0.908367
671.091	0.870518
671.226	0.914343
671.361	0.896414
671.496	0.880478
671.631	0.888446
671.766	0.894422
671.901	0.888446
672.036	0.894422
672.171	0.930279
672.306	0.922311
672.44	0.888446
672.575	0.898406
672.71	0.928287
672.845	0.898406
672.98	0.916335
673.115	0.888446
673.25	0.896414
673.385	0.904382
673.52	0.914343
673.655	0.916335
673.789	0.904382
673.924	0.884462
674.059	0.908367
674.194	0.912351
674.329	0.908367
674.464	0.922311
674.599	0.888446
674.734	0.926295
674.869	0.888446
675.003	0.888446
675.138	0.896414
675.273	0.906375
675.408	0.890438
675.543	0.890438
675.678	0.900398
675.813	0.906375
675.948	0.934263
676.083	0.906375
676.217	0.914343
676.352	0.930279
676.487	0.896414
676.622	0.87251
676.757	0.916335
676.892	0.946215
677.027	0.89243
677.162	0.904382
677.297	0.900398
677.431	0.916335
677.566	0.928287
677.701	0.904382
677.836	0.916335
677.971	0.914343
678.106	0.900398
678.241	0.896414
678.376	0.928287
678.511	0.928287
678.645	0.926295
678.78	0.908367
678.915	0.922311
679.05	0.90239
679.185	0.910359
679.32	0.900398
679.455	0.906375
679.59	0.896414
679.724	0.898406
679.859	0.894422
679.994	0.884462
680.129	0.910359
680.264	0.916335
680.399	0.89243
680.534	0.926295
680.669	0.90239
680.803	0.906375
680.938	0.898406
681.073	0.910359
681.208	0.896414
681.343	0.904382
681.478	0.914343
681.613	0.880478
681.748	0.908367
681.882	0.918327
682.017	0.918327
682.152	0.914343
682.287	0.888446
682.422	0.878486
682.557	0.890438
682.692	0.910359
682.827	0.890438
682.961	0.920319
683.096	0.894422
683.231	0.910359
683.366	0.888446
683.501	0.914343
683.636	0.932271
683.771	0.89243
683.906	0.906375
684.04	0.886454
684.175	0.900398
684.31	0.904382
684.445	0.918327
684.58	0.928287
684.715	0.912351
684.85	0.878486
684.984	0.928287
685.119	0.90239
685.254	0.88247
685.389	0.908367
685.524	0.894422
685.659	0.910359
685.794	0.888446
685.928	0.916335
686.063	0.912351
686.198	0.916335
686.333	0.924303
686.468	0.90239
686.603	0.904382
686.738	0.886454
686.872	0.88247
687.007	0.90239
687.142	0.888446
687.277	0.896414
687.412	0.924303
687.547	0.904382
687.682	0.894422
687.816	0.926295
687.951	0.898406
688.086	0.928287
688.221	0.910359
688.356	0.890438
688.491	0.90239
688.626	0.922311
688.76	0.900398
688.895	0.884462
689.03	0.888446
689.165	0.904382
689.3	0.890438
689.435	0.890438
689.57	0.906375
689.704	0.938247
689.839	0.912351
689.974	0.934263
690.109	0.896414
690.244	0.916335
690.379	0.924303
690.513	0.896414
690.648	0.906375
690.783	0.886454
690.918	0.916335
691.053	0.932271
691.188	0.926295
691.323	0.906375
691.457	0.908367
691.592	0.916335
691.727	0.914343
691.862	0.916335
691.997	0.916335
692.132	0.922311
692.266	0.884462
692.401	0.904382
692.536	0.906375
692.671	0.884462
692.806	0.916335
692.941	0.920319
693.075	0.868526
693.21	0.914343
693.345	0.920319
693.48	0.928287
693.615	0.888446
693.75	0.904382
693.885	0.912351
694.019	0.926295
694.154	0.918327
694.289	0.870518
694.424	0.896414
694.559	0.884462
694.694	0.914343
694.828	0.89243
694.963	0.906375
695.098	0.922311
695.233	0.884462
695.368	0.898406
695.503	0.926295
695.637	0.874502
695.772	0.918327
695.907	0.924303
696.042	0.904382
696.177	0.918327
696.312	0.916335
696.446	0.876494
696.581	0.906375
696.716	0.90239
696.851	0.906375
696.986	0.886454
697.12	0.884462
697.255	0.900398
697.39	0.906375
697.525	0.926295
697.66	0.89243
697.795	0.908367
697.929	0.920319
698.064	0.89243
698.199	0.914343
698.334	0.898406
698.469	0.914343
698.604	0.910359
698.738	0.910359
698.873	0.900398
699.008	0.904382
699.143	0.918327
699.278	0.938247
699.412	0.906375
699.547	0.912351
699.682	0.912351
699.817	0.870518
699.952	0.888446
700.087	0.894422
700.221	0.904382
700.356	0.900398
700.491	0.912351
700.626	0.932271
700.761	0.932271
700.895	0.908367
701.03	0.898406
701.165	0.898406
701.3	0.864542
701.435	0.90239
701.57	0.904382
701.704	0.928287
701.839	0.910359
701.974	0.90239
702.109	0.87251
702.244	0.88247
702.378	0.916335
702.513	0.894422
702.648	0.916335
702.783	0.928287
702.918	0.906375
703.052	0.898406
703.187	0.922311
703.322	0.874502
703.457	0.896414
703.592	0.90239
703.727	0.89243
703.861	0.924303
703.996	0.910359
704.131	0.89243
704.266	0.936255
704.401	0.904382
704.535	0.916335
704.67	0.890438
704.805	0.920319
704.94	0.896414
705.075	0.888446
705.209	0.884462
705.344	0.894422
705.479	0.90239
705.614	0.910359
705.749	0.890438
705.883	0.918327
706.018	0.890438
706.153	0.912351
706.288	0.890438
706.423	0.906375
706.557	0.876494
706.692	0.910359
706.827	0.920319
706.962	0.926295
707.097	0.90239
707.231	0.90239
707.366	0.898406
707.501	0.918327
707.636	0.870518
707.771	0.908367
707.905	0.894422
708.04	0.874502
708.175	0.894422
708.31	0.898406
708.445	0.898406
708.579	0.888446
708.714	0.918327
708.849	0.894422
708.984	0.908367
709.118	0.884462
709.253	0.884462
709.388	0.920319
709.523	0.896414
709.658	0.898406
709.792	0.896414
709.927	0.932271
710.062	0.89243
710.197	0.896414
710.332	0.89243
710.466	0.898406
710.601	0.918327
710.736	0.906375
710.871	0.886454
711.006	0.912351
711.14	0.904382
711.275	0.88247
711.41	0.912351
711.545	0.898406
711.679	0.900398
711.814	0.924303
711.949	0.908367
712.084	0.894422
712.219	0.910359
712.353	0.878486
712.488	0.910359
712.623	0.904382
712.758	0.912351
712.892	0.910359
713.027	0.910359
713.162	0.896414
713.297	0.908367
713.432	0.914343
713.566	0.910359
713.701	0.932271
713.836	0.920319
713.971	0.906375
714.105	0.930279
714.24	0.898406
714.375	0.920319
714.51	0.908367
714.645	0.884462
714.779	0.896414
714.914	0.926295
715.049	0.904382
715.184	0.900398
715.318	0.886454
715.453	0.906375
715.588	0.926295
715.723	0.904382
715.858	0.916335
715.992	0.918327
716.127	0.940239
716.262	0.904382
716.397	0.914343
716.531	0.918327
716.666	0.906375
716.801	0.938247
716.936	0.910359
717.07	0.88247
717.205	0.898406
717.34	0.932271
717.475	0.918327
717.61	0.898406
717.744	0.920319
717.879	0.898406
718.014	0.896414
718.149	0.906375
718.283	0.894422
718.418	0.930279
718.553	0.896414
718.688	0.894422
718.822	0.896414
718.957	0.910359
719.092	0.918327
719.227	0.908367
719.361	0.886454
719.496	0.908367
719.631	0.908367
719.766	0.920319
719.9	0.906375
720.035	0.912351
720.17	0.904382
720.305	0.912351
720.44	0.89243
720.574	0.904382
720.709	0.918327
720.844	0.916335
720.979	0.916335
721.113	0.904382
721.248	0.914343
721.383	0.884462
721.518	0.906375
721.652	0.884462
721.787	0.890438
721.922	0.88247
722.057	0.884462
722.191	0.922311
722.326	0.914343
722.461	0.912351
722.596	0.900398
722.73	0.904382
722.865	0.940239
723	0.874502
723.135	0.890438
723.269	0.926295
723.404	0.904382
723.539	0.918327
723.674	0.884462
723.808	0.904382
723.943	0.912351
724.078	0.898406
724.213	0.878486
724.347	0.89243
724.482	0.916335
724.617	0.926295
724.752	0.886454
724.886	0.932271
725.021	0.89243
725.156	0.894422
725.291	0.896414
725.425	0.922311
725.56	0.918327
725.695	0.906375
725.829	0.906375
725.964	0.890438
726.099	0.890438
726.234	0.938247
726.368	0.912351
726.503	0.88247
726.638	0.912351
726.773	0.912351
726.907	0.900398
727.042	0.89243
727.177	0.904382
727.312	0.898406
727.446	0.906375
727.581	0.910359
727.716	0.914343
727.851	0.926295
727.985	0.896414
728.12	0.90239
728.255	0.89243
728.389	0.88247
728.524	0.922311
728.659	0.90239
728.794	0.920319
728.928	0.876494
729.063	0.886454
729.198	0.906375
729.333	0.89243
729.467	0.922311
729.602	0.896414
729.737	0.886454
729.872	0.912351
730.006	0.898406
730.141	0.916335
730.276	0.89243
730.41	0.914343
730.545	0.908367
730.68	0.918327
730.815	0.90239
730.949	0.920319
731.084	0.878486
731.219	0.908367
731.354	0.904382
731.488	0.932271
731.623	0.920319
731.758	0.934263
731.892	0.89243
732.027	0.896414
732.162	0.886454
732.297	0.898406
732.431	0.914343
732.566	0.904382
732.701	0.898406
732.835	0.866534
732.97	0.89243
733.105	0.908367
733.24	0.922311
733.374	0.890438
733.509	0.912351
733.644	0.918327
733.779	0.89243
733.913	0.920319
734.048	0.894422
734.183	0.896414
734.317	0.884462
734.452	0.914343
734.587	0.88247
734.722	0.928287
734.856	0.876494
734.991	0.876494
735.126	0.908367
735.26	0.886454
735.395	0.904382
735.53	0.930279
735.665	0.898406
735.799	0.920319
735.934	0.916335
736.069	0.908367
736.203	0.906375
736.338	0.894422
736.473	0.898406
736.607	0.900398
736.742	0.912351
736.877	0.908367
737.012	0.900398
737.146	0.924303
737.281	0.898406
737.416	0.894422
737.55	0.926295
737.685	0.88247
737.82	0.910359
737.955	0.894422
738.089	0.920319
738.224	0.894422
738.359	0.886454
738.493	0.888446
738.628	0.936255
738.763	0.910359
738.897	0.906375
739.032	0.894422
739.167	0.920319
739.302	0.906375
739.436	0.880478
739.571	0.888446
739.706	0.916335
739.84	0.908367
739.975	0.88247
740.11	0.874502
740.244	0.894422
740.379	0.904382
740.514	0.924303
740.649	0.900398
740.783	0.910359
740.918	0.888446
741.053	0.904382
741.187	0.894422
741.322	0.904382
741.457	0.89243
741.591	0.914343
741.726	0.914343
741.861	0.918327
741.996	0.924303
742.13	0.904382
742.265	0.912351
742.4	0.868526
742.534	0.918327
742.669	0.898406
742.804	0.888446
742.938	0.904382
743.073	0.904382
743.208	0.914343
743.342	0.900398
743.477	0.870518
743.612	0.908367
743.747	0.908367
743.881	0.898406
744.016	0.884462
744.151	0.908367
744.285	0.922311
744.42	0.894422
744.555	0.918327
744.689	0.89243
744.824	0.912351
744.959	0.910359
745.093	0.906375
745.228	0.850598
745.363	0.898406
745.497	0.908367
745.632	0.916335
745.767	0.89243
745.901	0.904382
746.036	0.898406
746.171	0.912351
746.305	0.918327
746.44	0.890438
746.575	0.890438
746.71	0.916335
746.844	0.918327
746.979	0.906375
747.114	0.89243
747.248	0.898406
747.383	0.906375
747.518	0.886454
747.652	0.904382
747.787	0.916335
747.922	0.918327
748.056	0.910359
748.191	0.88247
748.326	0.890438
748.46	0.916335
748.595	0.914343
748.73	0.910359
748.864	0.89243
748.999	0.920319
749.134	0.928287
749.268	0.896414
749.403	0.876494
749.538	0.896414
749.672	0.898406
749.807	0.920319
749.942	0.920319
750.076	0.884462
750.211	0.910359
750.346	0.90239
750.48	0.898406
750.615	0.918327
750.75	0.908367
750.884	0.904382
751.019	0.896414
751.154	0.906375
751.288	0.888446
751.423	0.918327
751.558	0.90239
751.692	0.906375
751.827	0.914343
751.962	0.912351
752.096	0.900398
752.231	0.87251
752.366	0.914343
752.5	0.920319
752.635	0.920319
752.77	0.90239
752.904	0.906375
753.039	0.908367
753.174	0.908367
753.308	0.890438
753.443	0.898406
753.578	0.908367
753.712	0.944223
753.847	0.886454
753.982	0.894422
754.116	0.894422
754.251	0.914343
754.386	0.888446
754.52	0.896414
754.655	0.922311
754.79	0.908367
754.924	0.922311
755.059	0.90239
755.194	0.920319
755.328	0.90239
755.463	0.910359
755.597	0.926295
755.732	0.880478
755.867	0.888446
756.001	0.888446
756.136	0.88247
756.271	0.890438
756.405	0.916335
756.54	0.906375
756.675	0.88247
756.809	0.874502
756.944	0.898406
757.079	0.930279
757.213	0.922311
757.348	0.914343
757.483	0.900398
757.617	0.906375
757.752	0.906375
757.887	0.880478
758.021	0.916335
758.156	0.918327
758.29	0.886454
758.425	0.900398
758.56	0.910359
758.694	0.916335
758.829	0.898406
758.964	0.910359
759.098	0.896414
759.233	0.910359
759.368	0.900398
759.502	0.894422
759.637	0.910359
759.772	0.924303
759.906	0.926295
760.041	0.886454
760.175	0.898406
760.31	0.888446
760.445	0.904382
760.579	0.880478
760.714	0.924303
760.849	0.898406
760.983	0.914343
761.118	0.888446
761.253	0.900398
761.387	0.894422
761.522	0.89243
761.656	0.898406
761.791	0.906375
761.926	0.906375
762.06	0.932271
762.195	0.90239
762.33	0.904382
762.464	0.88247
762.599	0.928287
762.733	0.922311
762.868	0.890438
763.003	0.876494
763.137	0.900398
763.272	0.890438
763.407	0.918327
763.541	0.922311
763.676	0.890438
763.811	0.878486
763.945	0.910359
764.08	0.922311
764.214	0.904382
764.349	0.900398
764.484	0.924303
764.618	0.912351
764.753	0.914343
764.888	0.910359
765.022	0.896414
765.157	0.930279
765.291	0.900398
765.426	0.896414
765.561	0.920319
765.695	0.896414
765.83	0.916335
765.965	0.888446
766.099	0.908367
766.234	0.904382
766.368	0.884462
766.503	0.878486
766.638	0.914343
766.772	0.904382
766.907	0.90239
767.041	0.906375
767.176	0.906375
767.311	0.894422
767.445	0.908367
767.58	0.898406
767.715	0.912351
767.849	0.898406
767.984	0.890438
768.118	0.928287
768.253	0.916335
768.388	0.906375
768.522	0.908367
768.657	0.896414
768.791	0.890438
768.926	0.922311
769.061	0.912351
769.195	0.904382
769.33	0.900398
769.465	0.906375
769.599	0.924303
769.734	0.898406
769.868	0.916335
770.003	0.888446
770.138	0.916335
770.272	0.912351
770.407	0.898406
770.541	0.926295
770.676	0.88247
770.811	0.910359
770.945	0.876494
771.08	0.896414
771.214	0.930279
771.349	0.914343
771.484	0.874502
771.618	0.894422
771.753	0.908367
771.887	0.912351
772.022	0.88247
772.157	0.926295
772.291	0.912351
772.426	0.900398
772.56	0.922311
772.695	0.920319
772.83	0.904382
772.964	0.904382
773.099	0.906375
773.233	0.898406
773.368	0.916335
773.503	0.894422
773.637	0.900398
773.772	0.918327
773.906	0.908367
774.041	0.886454
774.176	0.920319
774.31	0.908367
774.445	0.850598
774.579	0.922311
774.714	0.898406
774.849	0.904382
774.983	0.918327
775.118	0.890438
775.252	0.898406
775.387	0.880478
775.522	0.914343
775.656	0.904382
775.791	0.89243
775.925	0.920319
776.06	0.906375
776.195	0.908367
776.329	0.890438
776.464	0.932271
776.598	0.894422
776.733	0.890438
776.868	0.926295
777.002	0.918327
777.137	0.912351
777.271	0.900398
777.406	0.886454
777.54	0.936255
777.675	0.914343
777.81	0.918327
777.944	0.868526
778.079	0.910359
778.213	0.912351
778.348	0.878486
778.483	0.926295
778.617	0.926295
778.752	0.858566
778.886	0.89243
779.021	0.90239
779.155	0.914343
779.29	0.890438
779.425	0.918327
779.559	0.888446
779.694	0.90239
779.828	0.904382
779.963	0.912351
780.098	0.898406
780.232	0.89243
780.367	0.880478
780.501	0.898406
780.636	0.890438
780.77	0.918327
780.905	0.876494
781.04	0.888446
781.174	0.910359
781.309	0.900398
781.443	0.888446
781.578	0.916335
781.712	0.89243
781.847	0.898406
781.982	0.908367
782.116	0.906375
782.251	0.89243
782.385	0.930279
782.52	0.878486
782.654	0.904382
782.789	0.884462
782.924	0.894422
783.058	0.888446
783.193	0.924303
783.327	0.922311
783.462	0.908367
783.596	0.912351
783.731	0.900398
783.866	0.910359
784	0.90239
784.135	0.898406
784.269	0.904382
784.404	0.922311
784.538	0.90239
784.673	0.930279
784.808	0.932271
784.942	0.906375
785.077	0.89243
785.211	0.916335
785.346	0.898406
785.48	0.906375
785.615	0.90239
785.75	0.918327
785.884	0.896414
786.019	0.870518
786.153	0.924303
786.288	0.874502
786.422	0.918327
786.557	0.900398
786.691	0.886454
786.826	0.900398
786.961	0.90239
787.095	0.890438
787.23	0.898406
787.364	0.918327
787.499	0.886454
787.633	0.900398
787.768	0.89243
787.902	0.906375
788.037	0.924303
788.172	0.890438
788.306	0.912351
788.441	0.910359
788.575	0.900398
788.71	0.90239
788.844	0.908367
788.979	0.880478
789.113	0.908367
789.248	0.890438
789.383	0.896414
789.517	0.924303
789.652	0.908367
789.786	0.904382
789.921	0.906375
790.055	0.904382
790.19	0.898406
790.324	0.914343
790.459	0.888446
790.594	0.912351
790.728	0.936255
790.863	0.938247
790.997	0.904382
791.132	0.898406
791.266	0.914343
791.401	0.912351
791.535	0.894422
791.67	0.88247
791.804	0.886454
791.939	0.934263
792.074	0.896414
792.208	0.89243
792.343	0.914343
792.477	0.918327
792.612	0.918327
792.746	0.890438
792.881	0.922311
793.015	0.900398
793.15	0.926295
793.284	0.912351
793.419	0.910359
793.553	0.906375
793.688	0.898406
793.823	0.920319
793.957	0.912351
794.092	0.926295
794.226	0.904382
794.361	0.894422
794.495	0.90239
794.63	0.908367
794.764	0.906375
794.899	0.90239
795.033	0.926295
795.168	0.90239
795.302	0.912351
795.437	0.88247
795.572	0.916335
795.706	0.900398
795.841	0.89243
795.975	0.874502
796.11	0.914343
796.244	0.876494
796.379	0.888446
796.513	0.906375
796.648	0.880478
796.782	0.896414
796.917	0.890438
797.051	0.908367
797.186	0.90239
797.32	0.894422
797.455	0.908367
797.589	0.890438
797.724	0.90239
797.859	0.886454
797.993	0.908367
798.128	0.904382
798.262	0.914343
798.397	0.884462
798.531	0.930279
798.666	0.88247
798.8	0.890438
798.935	0.910359
799.069	0.912351
799.204	0.906375
799.338	0.910359
799.473	0.896414
799.607	0.912351
799.742	0.912351
799.876	0.912351
800.011	0.890438
800.145	0.914343
800.28	0.896414
800.414	0.912351
800.549	0.918327
800.683	0.874502
800.818	0.898406
800.953	0.910359
801.087	0.922311
801.222	0.890438
801.356	0.90239
801.491	0.890438
801.625	0.912351
801.76	0.908367
801.894	0.90239
802.029	0.924303
802.163	0.870518
802.298	0.898406
802.432	0.918327
802.567	0.880478
802.701	0.924303
802.836	0.898406
802.97	0.894422
803.105	0.896414
803.239	0.876494
803.374	0.876494
803.508	0.90239
803.643	0.886454
803.777	0.894422
803.912	0.924303
804.046	0.914343
804.181	0.894422
804.315	0.920319
804.45	0.896414
804.584	0.904382
804.719	0.924303
804.853	0.888446
804.988	0.918327
805.122	0.89243
805.257	0.916335
805.391	0.932271
805.526	0.926295
805.66	0.888446
805.795	0.906375
805.929	0.920319
806.064	0.848606
806.198	0.894422
806.333	0.904382
806.467	0.888446
806.602	0.880478
806.736	0.89243
806.871	0.90239
807.005	0.900398
807.14	0.912351
807.274	0.904382
807.409	0.922311
807.543	0.934263
807.678	0.904382
807.812	0.888446
807.947	0.922311
808.081	0.880478
808.216	0.890438
808.35	0.910359
808.485	0.910359
808.619	0.880478
808.754	0.900398
808.888	0.898406
809.023	0.906375
809.157	0.896414
809.292	0.932271
809.426	0.894422
809.561	0.916335
809.695	0.918327
809.83	0.912351
809.964	0.916335
810.099	0.916335
810.233	0.916335
810.368	0.878486
810.502	0.900398
810.637	0.896414
810.771	0.924303
810.906	0.918327
811.04	0.936255
811.175	0.904382
811.309	0.932271
811.444	0.910359
811.578	0.90239
811.713	0.912351
811.847	0.898406
811.982	0.89243
812.116	0.890438
812.251	0.920319
812.385	0.886454
812.519	0.876494
812.654	0.89243
812.788	0.922311
812.923	0.886454
813.057	0.904382
813.192	0.898406
813.326	0.930279
813.461	0.910359
813.595	0.894422
813.73	0.880478
813.864	0.916335
813.999	0.898406
814.133	0.876494
814.268	0.912351
814.402	0.89243
814.537	0.934263
814.671	0.992032
814.806	1
814.94	0.954183
815.075	0.936255
815.209	0.900398
815.344	0.910359
815.478	0.898406
815.612	0.896414
815.747	0.928287
815.881	0.920319
816.016	0.898406
816.15	0.904382
816.285	0.898406
816.419	0.886454
816.554	0.876494
816.688	0.890438
816.823	0.926295
816.957	0.912351
817.092	0.896414
817.226	0.894422
817.361	0.924303
817.495	0.884462
817.63	0.930279
817.764	0.918327
817.898	0.910359
818.033	0.890438
818.167	0.914343
818.302	0.89243
818.436	0.912351
818.571	0.904382
818.705	0.886454
818.84	0.922311
818.974	0.914343
819.109	0.932271
819.243	0.888446
819.378	0.90239
819.512	0.90239
819.646	0.916335
819.781	0.894422
819.915	0.900398
820.05	0.890438
820.184	0.906375
820.319	0.90239
820.453	0.878486
820.588	0.942231
820.722	0.910359
820.857	0.910359
820.991	0.866534
821.126	0.89243
821.26	0.89243
821.394	0.888446
821.529	0.90239
821.663	0.920319
821.798	0.914343
821.932	0.908367
822.067	0.89243
822.201	0.910359
822.336	0.904382
822.47	0.910359
822.605	0.898406
822.739	0.942231
822.873	0.908367
823.008	0.942231
823.142	0.89243
823.277	0.908367
823.411	0.906375
823.546	0.898406
823.68	0.918327
823.815	0.928287
823.949	0.894422
824.083	0.908367
824.218	0.876494
824.352	0.886454
824.487	0.90239
824.621	0.898406
824.756	0.930279
824.89	0.906375
825.025	0.908367
825.159	0.934263
825.293	0.890438
825.428	0.894422
825.562	0.928287
825.697	0.888446
825.831	0.850598
825.966	0.922311
826.1	0.922311
826.235	0.896414
826.369	0.934263
826.503	0.944223
826.638	0.894422
826.772	0.918327
826.907	0.936255
827.041	0.910359
827.176	0.894422
827.31	0.916335
827.445	0.916335
827.579	0.898406
827.713	0.906375
827.848	0.898406
827.982	0.934263
828.117	0.922311
828.251	0.886454
828.386	0.886454
828.52	0.928287
828.654	0.896414
828.789	0.910359
828.923	0.936255
829.058	0.920319
829.192	0.910359
829.327	0.916335
829.461	0.926295
829.596	0.886454
829.73	0.910359
829.864	0.912351
829.999	0.910359
830.133	0.90239
830.268	0.918327
830.402	0.906375
830.537	0.930279
830.671	0.888446
830.805	0.890438
830.94	0.932271
831.074	0.904382
831.209	0.912351
831.343	0.912351
831.478	0.884462
831.612	0.896414
831.746	0.908367
831.881	0.898406
832.015	0.918327
832.15	0.904382
832.284	0.910359
832.418	0.910359
832.553	0.888446
832.687	0.942231
832.822	0.894422
832.956	0.90239
833.091	0.908367
833.225	0.90239
833.359	0.88247
833.494	0.90239
833.628	0.890438
833.763	0.890438
833.897	0.898406
834.032	0.910359
834.166	0.90239
834.3	0.90239
834.435	0.890438
834.569	0.910359
834.704	0.914343
834.838	0.936255
834.972	0.918327
835.107	0.930279
835.241	0.914343
835.376	0.914343
835.51	0.890438
835.645	0.936255
835.779	0.888446
835.913	0.894422
836.048	0.886454
836.182	0.908367
836.317	0.90239
836.451	0.914343
836.585	0.89243
836.72	0.930279
836.854	0.904382
836.989	0.920319
837.123	0.89243
837.257	0.874502
837.392	0.890438
837.526	0.894422
837.661	0.932271
837.795	0.884462
837.929	0.908367
838.064	0.908367
838.198	0.888446
838.333	0.89243
838.467	0.908367
838.602	0.900398
838.736	0.924303
838.87	0.90239
839.005	0.904382
839.139	0.928287
839.274	0.920319
839.408	0.88247
839.542	0.904382
839.677	0.908367
839.811	0.856574
839.946	0.878486
840.08	0.912351
840.214	0.918327
840.349	0.910359
840.483	0.906375
840.618	0.908367
840.752	0.910359
840.886	0.904382
841.021	0.912351
841.155	0.918327
841.29	0.874502
841.424	0.890438
841.558	0.898406
841.693	0.864542
841.827	0.908367
841.961	0.918327
842.096	0.918327
842.23	0.894422
842.365	0.914343
842.499	0.918327
842.633	0.914343
842.768	0.916335
842.902	0.896414
843.037	0.896414
843.171	0.89243
843.305	0.932271
843.44	0.894422
843.574	0.89243
843.709	0.914343
843.843	0.918327
843.977	0.906375
844.112	0.918327
844.246	0.922311
844.381	0.88247
844.515	0.898406
844.649	0.910359
844.784	0.910359
844.918	0.906375
845.052	0.894422
845.187	0.888446
845.321	0.912351
845.456	0.890438
845.59	0.888446
845.724	0.896414
845.859	0.90239
845.993	0.896414
846.128	0.898406
846.262	0.920319
846.396	0.904382
846.531	0.920319
846.665	0.908367
846.799	0.886454
846.934	0.910359
847.068	0.898406
847.203	0.928287
847.337	0.912351
847.471	0.908367
847.606	0.924303
847.74	0.906375
847.874	0.904382
848.009	0.900398
848.143	0.910359
848.278	0.886454
848.412	0.874502
848.546	0.914343
848.681	0.89243
848.815	0.920319
848.949	0.89243
849.084	0.896414
849.218	0.890438
849.353	0.922311
849.487	0.916335
849.621	0.898406
849.756	0.940239
849.89	0.908367
850.024	0.908367
850.159	0.898406
850.293	0.910359
850.428	0.924303
850.562	0.906375
850.696	0.916335
850.831	0.912351
850.965	0.920319
851.099	0.918327
851.234	0.880478
851.368	0.908367
851.502	0.898406
851.637	0.912351
851.771	0.886454
851.906	0.912351
852.04	0.880478
852.174	0.912351
852.309	0.890438
852.443	0.912351
852.577	0.89243
852.712	0.930279
852.846	0.932271
852.98	0.858566
853.115	0.896414
853.249	0.898406
853.384	0.932271
853.518	0.880478
853.652	0.858566
853.787	0.886454
853.921	0.89243
854.055	0.920319
854.19	0.900398
854.324	0.90239
854.458	0.928287
854.593	0.910359
854.727	0.914343
854.861	0.900398
854.996	0.926295
855.13	0.908367
855.265	0.90239
855.399	0.918327
855.533	0.90239
855.668	0.912351
855.802	0.924303
855.936	0.914343
856.071	0.890438
856.205	0.904382
856.339	0.920319
856.474	0.908367
856.608	0.880478
856.742	0.918327
856.877	0.928287
857.011	0.900398
857.145	0.898406
857.28	0.874502
857.414	0.914343
857.549	0.910359
857.683	0.886454
857.817	0.906375
857.952	0.90239
858.086	0.920319
858.22	0.912351
858.355	0.904382
858.489	0.900398
858.623	0.904382
858.758	0.916335
858.892	0.906375
859.026	0.890438
859.161	0.896414
859.295	0.904382
859.429	0.894422
859.564	0.926295
859.698	0.890438
859.832	0.904382
859.967	0.884462
860.101	0.90239
860.235	0.914343
860.37	0.920319
860.504	0.906375
860.638	0.900398
860.773	0.894422
860.907	0.900398
861.041	0.90239
861.176	0.880478
861.31	0.924303
861.444	0.932271
861.579	0.918327
861.713	0.890438
861.847	0.90239
861.982	0.888446
862.116	0.896414
862.25	0.894422
862.385	0.918327
862.519	0.906375
862.653	0.906375
862.788	0.896414
862.922	0.932271
863.056	0.934263
863.191	0.940239
863.325	0.922311
863.459	0.880478
863.594	0.918327
863.728	0.908367
863.862	0.906375
863.997	0.878486
864.131	0.924303
864.265	0.894422
864.4	0.904382
864.534	0.934263
864.668	0.922311
864.803	0.886454
864.937	0.924303
865.071	0.874502
865.206	0.870518
865.34	0.890438
865.474	0.896414
865.609	0.894422
865.743	0.90239
865.877	0.906375
866.012	0.928287
866.146	0.896414
866.28	0.904382
866.415	0.916335
866.549	0.896414
866.683	0.896414
866.818	0.904382
866.952	0.898406
867.086	0.886454
867.221	0.920319
867.355	0.87251
867.489	0.906375
867.623	0.910359
867.758	0.922311
867.892	0.90239
868.026	0.904382
868.161	0.930279
868.295	0.918327
868.429	0.938247
868.564	0.88247
868.698	0.908367
868.832	0.912351
868.967	0.896414
869.101	0.88247
869.235	0.916335
869.37	0.928287
869.504	0.904382
869.638	0.894422
869.773	0.932271
869.907	0.896414
870.041	0.900398
870.175	0.904382
870.31	0.908367
870.444	0.908367
870.578	0.896414
870.713	0.918327
870.847	0.904382
870.981	0.90239
871.116	0.884462
871.25	0.894422
871.384	0.920319
871.519	0.912351
871.653	0.900398
871.787	0.896414
871.921	0.920319
872.056	0.886454
872.19	0.888446
872.324	0.87251
872.459	0.914343
872.593	0.888446
872.727	0.90239
872.862	0.90239
872.996	0.900398
873.13	0.888446
873.264	0.930279
873.399	0.898406
873.533	0.940239
873.667	0.890438
873.802	0.910359
873.936	0.920319
874.07	0.900398
874.205	0.90239
874.339	0.908367
874.473	0.904382
874.607	0.88247
874.742	0.880478
874.876	0.88247
875.01	0.910359
875.145	0.898406
875.279	0.920319
875.413	0.914343
875.548	0.90239
875.682	0.912351
875.816	0.908367
875.95	0.954183
876.085	0.90239
876.219	0.914343
876.353	0.89243
876.488	0.898406
876.622	0.924303
876.756	0.922311
876.89	0.890438
877.025	0.896414
877.159	0.922311
877.293	0.904382
877.428	0.89243
877.562	0.890438
877.696	0.888446
877.83	0.910359
877.965	0.910359
878.099	0.912351
878.233	0.908367
878.368	0.906375
878.502	0.88247
878.636	0.916335
878.77	0.910359
878.905	0.89243
879.039	0.880478
879.173	0.898406
879.308	0.89243
879.442	0.90239
879.576	0.910359
879.71	0.904382
879.845	0.88247
879.979	0.89243
880.113	0.890438
880.248	0.916335
880.382	0.898406
880.516	0.922311
880.65	0.916335
880.785	0.90239
880.919	0.926295
881.053	0.888446
881.188	0.922311
881.322	0.916335
881.456	0.920319
881.59	0.876494
881.725	0.886454
881.859	0.904382
881.993	0.89243
882.127	0.898406
882.262	0.910359
882.396	0.904382
882.53	0.932271
882.665	0.918327
882.799	0.88247
882.933	0.908367
883.067	0.910359
883.202	0.90239
883.336	0.90239
883.47	0.918327
883.604	0.908367
883.739	0.890438
883.873	0.870518
884.007	0.89243
884.142	0.88247
884.276	0.912351
884.41	0.89243
884.544	0.904382
884.679	0.88247
884.813	0.894422
884.947	0.89243
885.081	0.894422
885.216	0.90239
885.35	0.906375
885.484	0.896414
885.618	0.940239
885.753	0.918327
885.887	0.898406
886.021	0.896414
886.155	0.908367
886.29	0.89243
886.424	0.906375
886.558	0.920319
886.693	0.890438
886.827	0.898406
886.961	0.932271
887.095	0.898406
887.23	0.920319
887.364	0.890438
887.498	0.922311
887.632	0.896414
887.767	0.896414
887.901	0.864542
888.035	0.904382
888.169	0.904382
888.304	0.938247
888.438	0.910359
888.572	0.926295
888.706	0.890438
888.841	0.890438
888.975	0.916335
889.109	0.906375
889.243	0.884462
889.378	0.88247
889.512	0.910359
889.646	0.896414
889.78	0.918327
889.915	0.912351
890.049	0.928287
890.183	0.896414
890.317	0.886454
890.452	0.896414
890.586	0.894422
890.72	0.904382
890.854	0.888446
890.989	0.918327
891.123	0.904382
891.257	0.920319
891.391	0.876494
891.526	0.898406
891.66	0.906375
891.794	0.906375
891.928	0.914343
892.063	0.906375
892.197	0.89243
892.331	0.916335
892.465	0.926295
892.6	0.90239
892.734	0.908367
892.868	0.904382
893.002	0.912351
893.137	0.918327
893.271	0.906375
893.405	0.894422
893.539	0.910359
893.674	0.906375
893.808	0.914343
893.942	0.924303
894.076	0.908367
894.21	0.898406
894.345	0.884462
894.479	0.910359
894.613	0.906375
894.747	0.912351
894.882	0.90239
895.016	0.916335
895.15	0.900398
895.284	0.906375
895.419	0.894422
895.553	0.900398
895.687	0.894422
895.821	0.912351
895.956	0.898406
896.09	0.916335
896.224	0.924303
896.358	0.896414
896.492	0.916335
896.627	0.90239
896.761	0.912351
896.895	0.910359
897.029	0.900398
897.164	0.906375
897.298	0.890438
897.432	0.918327
897.566	0.874502
897.701	0.906375
897.835	0.914343
897.969	0.886454
898.103	0.896414
898.237	0.940239
898.372	0.890438
898.506	0.89243
898.64	0.89243
898.774	0.914343
898.909	0.894422
899.043	0.918327
899.177	0.926295
899.311	0.886454
899.445	0.888446
899.58	0.924303
899.714	0.896414
899.848	0.896414
899.982	0.88247
900.117	0.888446
900.251	0.898406
900.385	0.926295
900.519	0.886454
900.653	0.918327
900.788	0.908367
900.922	0.90239
901.056	0.896414
901.19	0.916335
901.325	0.908367
901.459	0.934263
901.593	0.858566
901.727	0.912351
901.861	0.878486
901.996	0.900398
902.13	0.936255
902.264	0.896414
902.398	0.880478
902.532	0.898406
902.667	0.884462
902.801	0.930279
902.935	0.910359
903.069	0.900398
903.204	0.884462
903.338	0.940239
903.472	0.906375
903.606	0.894422
903.74	0.896414
903.875	0.926295
904.009	0.918327
904.143	0.898406
904.277	0.920319
904.411	0.918327
904.546	0.930279
904.68	0.90239
904.814	0.916335
904.948	0.912351
905.082	0.910359
905.217	0.89243
905.351	0.904382
905.485	0.896414
905.619	0.900398
905.753	0.900398
905.888	0.906375
906.022	0.924303
906.156	0.910359
906.29	0.922311
906.424	0.894422
906.559	0.900398
906.693	0.910359
906.827	0.928287
906.961	0.916335
907.095	0.90239
907.23	0.890438
907.364	0.914343
907.498	0.90239
907.632	0.89243
907.766	0.880478
907.901	0.912351
908.035	0.916335
908.169	0.88247
908.303	0.90239
908.437	0.934263
908.572	0.876494
908.706	0.900398
908.84	0.894422
908.974	0.908367
909.108	0.904382
909.243	0.880478
909.377	0.908367
909.511	0.912351
909.645	0.914343
909.779	0.904382
909.914	0.886454
910.048	0.894422
910.182	0.918327
910.316	0.88247
910.45	0.896414
910.585	0.90239
910.719	0.90239
910.853	0.918327
910.987	0.888446
911.121	0.886454
911.255	0.896414
911.39	0.90239
911.524	0.86255
911.658	0.910359
911.792	0.900398
911.926	0.89243
912.061	0.924303
912.195	0.934263
912.329	0.89243
912.463	0.910359
912.597	0.868526
912.732	0.938247
912.866	0.890438
913	0.906375
913.134	0.898406
913.268	0.914343
913.402	0.924303
913.537	0.884462
913.671	0.924303
913.805	0.896414
913.939	0.906375
914.073	0.914343
914.208	0.878486
914.342	0.906375
914.476	0.900398
914.61	0.914343
914.744	0.896414
914.878	0.900398
915.013	0.894422
915.147	0.890438
915.281	0.908367
915.415	0.898406
915.549	0.886454
915.683	0.89243
915.818	0.922311
915.952	0.90239
916.086	0.912351
916.22	0.908367
916.354	0.894422
916.488	0.912351
916.623	0.870518
916.757	0.894422
916.891	0.924303
917.025	0.906375
917.159	0.90239
917.293	0.880478
917.428	0.910359
917.562	0.886454
917.696	0.89243
917.83	0.906375
917.964	0.912351
918.098	0.914343
918.233	0.908367
918.367	0.918327
918.501	0.90239
918.635	0.918327
918.769	0.89243
918.903	0.942231
919.038	0.908367
919.172	0.908367
919.306	0.896414
919.44	0.89243
919.574	0.900398
919.708	0.904382
919.843	0.914343
919.977	0.906375
920.111	0.896414
920.245	0.90239
920.379	0.88247
920.513	0.916335
920.648	0.88247
920.782	0.914343
920.916	0.932271
921.05	0.87251
921.184	0.922311
921.318	0.888446
921.453	0.896414
921.587	0.888446
921.721	0.896414
921.855	0.910359
921.989	0.934263
922.123	0.886454
922.257	0.90239
922.392	0.898406
922.526	0.90239
922.66	0.898406
922.794	0.908367
922.928	0.880478
923.062	0.898406
923.197	0.916335
923.331	0.908367
923.465	0.916335
923.599	0.916335
923.733	0.894422
923.867	0.888446
924.001	0.910359
924.136	0.896414
924.27	0.920319
924.404	0.900398
924.538	0.90239
924.672	0.906375
924.806	0.898406
924.94	0.920319
925.075	0.904382
925.209	0.89243
925.343	0.906375
925.477	0.916335
925.611	0.896414
925.745	0.904382
925.879	0.914343
926.014	0.914343
926.148	0.90239
926.282	0.884462
926.416	0.912351
926.55	0.930279
926.684	0.900398
926.818	0.88247
926.953	0.900398
927.087	0.916335
927.221	0.876494
927.355	0.910359
927.489	0.920319
927.623	0.878486
927.757	0.924303
927.892	0.910359
928.026	0.914343
928.16	0.90239
928.294	0.894422
928.428	0.90239
928.562	0.908367
928.696	0.920319
928.831	0.908367
928.965	0.90239
929.099	0.908367
929.233	0.920319
929.367	0.87251
929.501	0.898406
929.635	0.906375
929.769	0.920319
929.904	0.930279
930.038	0.886454
930.172	0.918327
930.306	0.896414
930.44	0.890438
930.574	0.904382
930.708	0.906375
930.843	0.884462
930.977	0.87251
931.111	0.904382
931.245	0.898406
931.379	0.874502
931.513	0.900398
931.647	0.904382
931.781	0.914343
931.916	0.90239
932.05	0.870518
932.184	0.914343
932.318	0.924303
932.452	0.870518
932.586	0.900398
932.72	0.920319
932.854	0.890438
932.989	0.906375
933.123	0.924303
933.257	0.90239
933.391	0.916335
933.525	0.884462
933.659	0.910359
933.793	0.890438
933.927	0.884462
934.061	0.89243
934.196	0.920319
934.33	0.914343
934.464	0.89243
934.598	0.928287
934.732	0.914343
934.866	0.888446
935	0.916335
935.134	0.914343
935.269	0.900398
935.403	0.898406
935.537	0.904382
935.671	0.900398
935.805	0.878486
935.939	0.896414
936.073	0.904382
936.207	0.914343
936.341	0.876494
936.476	0.890438
936.61	0.922311
936.744	0.904382
936.878	0.900398
937.012	0.89243
937.146	0.896414
937.28	0.896414
937.414	0.890438
937.548	0.888446
937.683	0.914343
937.817	0.906375
937.951	0.914343
938.085	0.912351
938.219	0.910359
938.353	0.904382
938.487	0.904382
938.621	0.874502
938.755	0.932271
938.889	0.894422
939.024	0.912351
939.158	0.916335
939.292	0.906375
939.426	0.906375
939.56	0.906375
939.694	0.90239
939.828	0.898406
939.962	0.912351
940.096	0.898406
940.231	0.922311
940.365	0.896414
940.499	0.912351
940.633	0.900398
940.767	0.890438
940.901	0.944223
941.035	0.918327
941.169	0.898406
941.303	0.906375
941.437	0.904382
941.571	0.890438
941.706	0.906375
941.84	0.898406
941.974	0.886454
942.108	0.904382
942.242	0.916335
942.376	0.948207
942.51	0.904382
942.644	0.904382
942.778	0.90239
942.912	0.894422
943.047	0.912351
943.181	0.888446
943.315	0.908367
943.449	0.918327
943.583	0.906375
943.717	0.896414
943.851	0.914343
943.985	0.894422
944.119	0.894422
944.253	0.904382
944.387	0.896414
944.522	0.890438
944.656	0.924303
944.79	0.890438
944.924	0.912351
945.058	0.888446
945.192	0.90239
945.326	0.894422
945.46	0.916335
945.594	0.898406
945.728	0.944223
945.862	0.898406
945.996	0.904382
946.131	0.920319
946.265	0.894422
946.399	0.912351
946.533	0.890438
946.667	0.922311
946.801	0.896414
946.935	0.906375
947.069	0.884462
947.203	0.898406
947.337	0.874502
947.471	0.906375
947.605	0.88247
947.739	0.908367
947.874	0.908367
948.008	0.888446
948.142	0.896414
948.276	0.89243
948.41	0.894422
948.544	0.904382
948.678	0.908367
948.812	0.908367
948.946	0.928287
949.08	0.898406
949.214	0.90239
949.348	0.908367
949.482	0.890438
949.617	0.928287
949.751	0.932271
949.885	0.880478
950.019	0.930279
950.153	0.914343
950.287	0.910359
950.421	0.894422
950.555	0.904382
950.689	0.886454
950.823	0.90239
950.957	0.900398
951.091	0.906375
951.225	0.898406
951.359	0.89243
951.493	0.878486
951.628	0.934263
951.762	0.896414
951.896	0.900398
952.03	0.878486
952.164	0.896414
952.298	0.890438
952.432	0.906375
952.566	0.918327
952.7	0.890438
952.834	0.900398
952.968	0.934263
953.102	0.914343
953.236	0.898406
953.37	0.906375
953.504	0.900398
953.639	0.904382
953.773	0.906375
953.907	0.926295
954.041	0.894422
954.175	0.914343
954.309	0.930279
954.443	0.914343
954.577	0.90239
954.711	0.888446
954.845	0.922311
954.979	0.90239
955.113	0.908367
955.247	0.876494
955.381	0.890438
955.515	0.87251
955.649	0.908367
955.783	0.88247
955.917	0.938247
956.052	0.912351
956.186	0.960159
956.32	0.916335
956.454	0.898406
956.588	0.88247
956.722	0.89243
956.856	0.922311
956.99	0.910359
957.124	0.906375
957.258	0.896414
957.392	0.918327
957.526	0.90239
957.66	0.896414
957.794	0.916335
957.928	0.896414
958.062	0.884462
958.196	0.900398
958.33	0.884462
958.464	0.910359
958.598	0.948207
958.733	0.900398
958.867	0.900398
959.001	0.900398
959.135	0.906375
959.269	0.914343
959.403	0.928287
959.537	0.914343
959.671	0.900398
959.805	0.894422
959.939	0.900398
960.073	0.87251
960.207	0.910359
960.341	0.912351
960.475	0.89243
960.609	0.886454
960.743	0.920319
960.877	0.90239
961.011	0.920319
961.145	0.894422
961.279	0.88247
961.413	0.890438
961.547	0.898406
961.681	0.912351
961.815	0.910359
961.949	0.914343
962.083	0.906375
962.218	0.912351
962.352	0.860558
962.486	0.924303
962.62	0.886454
962.754	0.886454
962.888	0.888446
963.022	0.900398
963.156	0.912351
963.29	0.914343
963.424	0.87251
963.558	0.874502
963.692	0.906375
963.826	0.896414
963.96	0.924303
964.094	0.886454
964.228	0.880478
964.362	0.900398
964.496	0.898406
964.63	0.910359
964.764	0.880478
964.898	0.896414
965.032	0.936255
965.166	0.894422
965.3	0.916335
965.434	0.906375
965.568	0.922311
965.702	0.89243
965.836	0.922311
965.97	0.868526
966.104	0.906375
966.238	0.912351
966.372	0.906375
966.506	0.89243
966.64	0.896414
966.774	0.90239
966.908	0.904382
967.043	0.900398
967.177	0.908367
967.311	0.898406
967.445	0.894422
967.579	0.920319
967.713	0.884462
967.847	0.88247
967.981	0.900398
968.115	0.898406
968.249	0.908367
968.383	0.894422
968.517	0.880478
968.651	0.898406
968.785	0.904382
968.919	0.88247
969.053	0.886454
969.187	0.916335
969.321	0.90239
969.455	0.910359
969.589	0.898406
969.723	0.89243
969.857	0.89243
969.991	0.854582
970.125	0.906375
970.259	0.926295
970.393	0.880478
970.527	0.894422
970.661	0.898406
970.795	0.88247
970.929	0.890438
971.063	0.90239
971.197	0.90239
971.331	0.90239
971.465	0.898406
971.599	0.896414
971.733	0.916335
971.867	0.868526
972.001	0.916335
972.135	0.896414
972.269	0.904382
972.403	0.89243
972.537	0.914343
972.671	0.884462
972.805	0.888446
972.939	0.904382
973.073	0.884462
973.207	0.928287
973.341	0.898406
973.475	0.904382
973.609	0.894422
973.743	0.906375
973.877	0.880478
974.011	0.930279
974.145	0.920319
974.279	0.888446
974.413	0.894422
974.547	0.908367
974.681	0.90239
974.815	0.88247
974.949	0.890438
975.083	0.912351
975.217	0.884462
975.351	0.908367
975.485	0.936255
975.619	0.912351
975.753	0.89243
975.887	0.896414
976.021	0.920319
976.155	0.906375
976.289	0.868526
976.423	0.914343
976.557	0.894422
976.691	0.918327
976.825	0.898406
976.959	0.924303
977.093	0.898406
977.227	0.894422
977.361	0.938247
977.495	0.908367
977.629	0.874502
977.763	0.896414
977.897	0.930279
978.031	0.926295
978.165	0.87251
978.299	0.906375
978.433	0.908367
978.567	0.88247
978.701	0.906375
978.835	0.890438
978.969	0.904382
979.103	0.900398
979.237	0.898406
979.371	0.918327
979.505	0.898406
979.639	0.898406
979.773	0.90239
979.907	0.908367
980.041	0.914343
980.175	0.904382
980.308	0.952191
980.442	0.896414
980.576	0.916335
980.71	0.912351
980.844	0.908367
980.978	0.938247
981.112	0.908367
981.246	0.894422
981.38	0.900398
981.514	0.90239
981.648	0.90239
981.782	0.894422
981.916	0.888446
982.05	0.900398
982.184	0.926295
982.318	0.87251
982.452	0.894422
982.586	0.912351
982.72	0.89243
982.854	0.910359
982.988	0.904382
983.122	0.900398
983.256	0.90239
983.39	0.930279
983.524	0.904382
983.658	0.936255
983.792	0.89243
983.926	0.894422
984.06	0.884462
984.194	0.90239
984.328	0.880478
984.462	0.90239
984.596	0.922311
984.73	0.906375
984.864	0.914343
984.998	0.918327
985.132	0.90239
985.265	0.89243
985.399	0.874502
985.533	0.900398
985.667	0.908367
985.801	0.886454
985.935	0.940239
986.069	0.898406
986.203	0.896414
986.337	0.886454
986.471	0.928287
986.605	0.880478
986.739	0.896414
986.873	0.894422
987.007	0.89243
987.141	0.928287
987.275	0.904382
987.409	0.906375
987.543	0.888446
987.677	0.894422
987.811	0.884462
987.945	0.910359
988.079	0.926295
988.213	0.878486
988.347	0.886454
988.481	0.898406
988.614	0.88247
988.748	0.900398
988.882	0.890438
989.016	0.900398
989.15	0.924303
989.284	0.908367
989.418	0.904382
989.552	0.914343
989.686	0.89243
989.82	0.890438
989.954	0.90239
990.088	0.924303
990.222	0.908367
990.356	0.924303
990.49	0.910359
990.624	0.924303
990.758	0.904382
990.892	0.914343
991.026	0.90239
991.16	0.916335
991.294	0.912351
991.427	0.926295
991.561	0.936255
991.695	0.878486
991.829	0.922311
991.963	0.912351
992.097	0.90239
992.231	0.894422
992.365	0.922311
992.499	0.88247
992.633	0.910359
992.767	0.912351
992.901	0.876494
993.035	0.930279
993.169	0.916335
993.303	0.906375
993.437	0.926295
993.571	0.916335
993.704	0.90239
993.838	0.918327
993.972	0.918327
994.106	0.918327
994.24	0.912351
994.374	0.89243
994.508	0.884462
994.642	0.908367
994.776	0.900398
994.91	0.914343
995.044	0.910359
995.178	0.870518
995.312	0.898406
995.446	0.896414
995.58	0.884462
995.714	0.904382
995.847	0.900398
995.981	0.90239
996.115	0.912351
996.249	0.886454
996.383	0.936255
996.517	0.920319
996.651	0.90239
996.785	0.88247
996.919	0.920319
997.053	0.908367
997.187	0.928287
997.321	0.898406
997.455	0.880478
997.589	0.894422
997.722	0.918327
997.856	0.89243
997.99	0.904382
998.124	0.922311
998.258	0.908367
998.392	0.916335
998.526	0.918327
998.66	0.920319
998.794	0.920319
998.928	0.920319
999.062	0.910359
999.196	0.90239
999.33	0.900398
999.464	0.890438
999.597	0.904382
999.731	0.922311
999.865	0.918327
999.999	0.904382
1000.13	0.896414
1000.27	0.930279
1000.4	0.914343
1000.53	0.89243
1000.67	0.898406
1000.8	0.894422
1000.94	0.914343
1001.07	0.888446
1001.2	0.894422
1001.34	0.928287
1001.47	0.910359
1001.61	0.930279
1001.74	0.936255
1001.87	0.916335
1002.01	0.922311
1002.14	0.888446
1002.28	0.912351
1002.41	0.912351
1002.54	0.894422
1002.68	0.926295
1002.81	0.910359
1002.95	0.904382
1003.08	0.914343
1003.21	0.926295
1003.35	0.898406
1003.48	0.878486
1003.61	0.896414
1003.75	0.88247
1003.88	0.898406
1004.02	0.878486
1004.15	0.916335
1004.28	0.906375
1004.42	0.880478
1004.55	0.878486
1004.69	0.884462
1004.82	0.890438
1004.95	0.920319
1005.09	0.88247
1005.22	0.904382
1005.36	0.910359
1005.49	0.88247
1005.62	0.896414
1005.76	0.922311
1005.89	0.910359
1006.03	0.884462
1006.16	0.906375
1006.29	0.914343
1006.43	0.926295
1006.56	0.888446
1006.69	0.906375
1006.83	0.910359
1006.96	0.906375
1007.1	0.898406
1007.23	0.878486
1007.36	0.924303
1007.5	0.884462
1007.63	0.912351
1007.77	0.878486
1007.9	0.922311
1008.03	0.886454
1008.17	0.912351
1008.3	0.888446
1008.44	0.914343
1008.57	0.906375
1008.7	0.888446
1008.84	0.906375
1008.97	0.936255
1009.1	0.900398
1009.24	0.914343
1009.37	0.900398
1009.51	0.898406
1009.64	0.890438
1009.77	0.880478
1009.91	0.904382
1010.04	0.916335
1010.18	0.896414
1010.31	0.910359
1010.44	0.912351
1010.58	0.888446
1010.71	0.908367
1010.85	0.896414
1010.98	0.876494
1011.11	0.876494
1011.25	0.89243
1011.38	0.896414
1011.51	0.898406
1011.65	0.906375
1011.78	0.898406
1011.92	0.90239
1012.05	0.87251
1012.18	0.916335
1012.32	0.896414
1012.45	0.898406
1012.59	0.928287
1012.72	0.906375
1012.85	0.904382
1012.99	0.914343
1013.12	0.928287
1013.26	0.898406
1013.39	0.924303
1013.52	0.894422
1013.66	0.900398
1013.79	0.924303
1013.92	0.876494
1014.06	0.896414
1014.19	0.908367
1014.33	0.886454
1014.46	0.890438
1014.59	0.916335
1014.73	0.890438
1014.86	0.898406
1015	0.950199
1015.13	0.920319
1015.26	0.914343
1015.4	0.89243
1015.53	0.900398
1015.67	0.90239
1015.8	0.908367
1015.93	0.888446
1016.07	0.914343
1016.2	0.942231
1016.33	0.930279
1016.47	0.932271
1016.6	0.924303
1016.74	0.924303
1016.87	0.88247
1017	0.918327
1017.14	0.900398
1017.27	0.894422
1017.41	0.912351
1017.54	0.898406
1017.67	0.900398
1017.81	0.880478
1017.94	0.90239
1018.07	0.912351
1018.21	0.87251
1018.34	0.900398
1018.48	0.922311
1018.61	0.904382
1018.74	0.924303
1018.88	0.906375
1019.01	0.874502
1019.15	0.906375
1019.28	0.914343
1019.41	0.896414
1019.55	0.878486
1019.68	0.936255
1019.82	0.910359
1019.95	0.940239
1020.08	0.908367
1020.22	0.898406
1020.35	0.936255
1020.48	0.88247
1020.62	0.89243
1020.75	0.924303
1020.89	0.876494
1021.02	0.878486
1021.15	0.898406
1021.29	0.914343
1021.42	0.894422
1021.56	0.914343
1021.69	0.908367
1021.82	0.908367
1021.96	0.908367
1022.09	0.89243
1022.22	0.898406
1022.36	0.880478
1022.49	0.880478
1022.63	0.912351
1022.76	0.88247
1022.89	0.910359
1023.03	0.922311
1023.16	0.874502
1023.3	0.904382
1023.43	0.878486
1023.56	0.920319
1023.7	0.908367
1023.83	0.896414
1023.96	0.896414
1024.1	0.89243
1024.23	0.914343
1024.37	0.910359
1024.5	0.900398
1024.63	0.878486
1024.77	0.876494
1024.9	0.860558
1025.04	0.914343
1025.17	0.908367
1025.3	0.926295
1025.44	0.890438
1025.57	0.894422
1025.7	0.926295
1025.84	0.896414
1025.97	0.90239
1026.11	0.912351
1026.24	0.90239
1026.37	0.884462
1026.51	0.88247
1026.64	0.890438
1026.78	0.894422
1026.91	0.900398
1027.04	0.888446
1027.18	0.888446
1027.31	0.916335
1027.44	0.908367
1027.58	0.906375
1027.71	0.898406
1027.85	0.900398
1027.98	0.898406
1028.11	0.906375
1028.25	0.876494
1028.38	0.886454
1028.52	0.926295
1028.65	0.914343
1028.78	0.934263
1028.92	0.920319
1029.05	0.89243
1029.18	0.910359
1029.32	0.888446
1029.45	0.912351
1029.59	0.900398
1029.72	0.920319
1029.85	0.886454
1029.99	0.886454
1030.12	0.924303
1030.26	0.904382
1030.39	0.948207
1030.52	0.906375
1030.66	0.888446
1030.79	0.896414
1030.92	0.88247
1031.06	0.900398
1031.19	0.896414
1031.33	0.922311
1031.46	0.894422
1031.59	0.88247
1031.73	0.896414
1031.86	0.922311
1031.99	0.888446
1032.13	0.904382
1032.26	0.926295
1032.4	0.896414
1032.53	0.876494
1032.66	0.886454
1032.8	0.908367
1032.93	0.878486
1033.07	0.90239
1033.2	0.890438
1033.33	0.878486
1033.47	0.896414
1033.6	0.916335
1033.73	0.916335
1033.87	0.922311
1034	0.884462
1034.14	0.894422
1034.27	0.890438
1034.4	0.926295
1034.54	0.894422
1034.67	0.932271
1034.81	0.894422
1034.94	0.932271
1035.07	0.920319
1035.21	0.900398
1035.34	0.914343
1035.47	0.88247
1035.61	0.896414
1035.74	0.910359
1035.88	0.868526
1036.01	0.916335
1036.14	0.89243
1036.28	0.894422
1036.41	0.910359
1036.54	0.922311
1036.68	0.918327
1036.81	0.876494
1036.95	0.918327
1037.08	0.920319
1037.21	0.896414
1037.35	0.914343
1037.48	0.894422
1037.62	0.890438
1037.75	0.888446
1037.88	0.900398
1038.02	0.904382
1038.15	0.904382
1038.28	0.920319
1038.42	0.920319
1038.55	0.916335
1038.69	0.922311
1038.82	0.906375
1038.95	0.89243
1039.09	0.920319
1039.22	0.922311
1039.35	0.930279
1039.49	0.900398
1039.62	0.936255
1039.76	0.88247
1039.89	0.88247
1040.02	0.910359
1040.16	0.878486
1040.29	0.89243
1040.43	0.916335
1040.56	0.880478
1040.69	0.904382
1040.83	0.910359
1040.96	0.906375
1041.09	0.890438
1041.23	0.896414
1041.36	0.910359
1041.5	0.884462
1041.63	0.910359
1041.76	0.904382
1041.9	0.900398
1042.03	0.89243
1042.16	0.884462
1042.3	0.918327
1042.43	0.896414
1042.57	0.924303
1042.7	0.922311
1042.83	0.894422
1042.97	0.90239
1043.1	0.900398
1043.23	0.908367
1043.37	0.898406
1043.5	0.932271
1043.64	0.898406
1043.77	0.90239
1043.9	0.896414
1044.04	0.916335
1044.17	0.896414
1044.31	0.910359
1044.44	0.900398
1044.57	0.914343
1044.71	0.90239
1044.84	0.904382
1044.97	0.910359
1045.11	0.900398
1045.24	0.920319
1045.38	0.920319
1045.51	0.878486
1045.64	0.920319
1045.78	0.896414
1045.91	0.906375
1046.04	0.918327
1046.18	0.916335
1046.31	0.912351
1046.45	0.910359
1046.58	0.904382
1046.71	0.910359
1046.85	0.898406
1046.98	0.914343
1047.11	0.910359
1047.25	0.936255
1047.38	0.914343
1047.52	0.920319
1047.65	0.916335
1047.78	0.894422
1047.92	0.89243
1048.05	0.918327
1048.18	0.912351
1048.32	0.888446
1048.45	0.888446
1048.59	0.90239
1048.72	0.920319
1048.85	0.936255
1048.99	0.904382
1049.12	0.898406
1049.25	0.908367
1049.39	0.940239
1049.52	0.886454
1049.66	0.914343
1049.79	0.898406
1049.92	0.918327
1050.06	0.906375
1050.19	0.896414
1050.33	0.912351
1050.46	0.916335
1050.59	0.908367
1050.73	0.914343
1050.86	0.886454
1050.99	0.934263
1051.13	0.90239
1051.26	0.898406
1051.4	0.894422
1051.53	0.888446
1051.66	0.936255
1051.8	0.920319
1051.93	0.89243
1052.06	0.896414
1052.2	0.896414
1052.33	0.928287
1052.47	0.88247
1052.6	0.900398
1052.73	0.930279
1052.87	0.904382
1053	0.90239
1053.13	0.922311
1053.27	0.912351
1053.4	0.868526
1053.54	0.884462
1053.67	0.896414
1053.8	0.894422
1053.94	0.890438
1054.07	0.918327
1054.2	0.894422
1054.34	0.924303
1054.47	0.910359
1054.61	0.918327
1054.74	0.890438
1054.87	0.926295
1055.01	0.866534
1055.14	0.912351
1055.27	0.918327
1055.41	0.900398
1055.54	0.908367
1055.68	0.908367
1055.81	0.930279
1055.94	0.888446
1056.08	0.910359
1056.21	0.894422
1056.34	0.908367
1056.48	0.916335
1056.61	0.880478
1056.75	0.920319
1056.88	0.910359
1057.01	0.884462
1057.15	0.88247
1057.28	0.866534
1057.41	0.922311
1057.55	0.870518
1057.68	0.876494
1057.82	0.912351
1057.95	0.906375
1058.08	0.930279
1058.22	0.922311
1058.35	0.908367
1058.48	0.920319
1058.62	0.930279
1058.75	0.910359
1058.89	0.912351
1059.02	0.908367
1059.15	0.884462
1059.29	0.910359
1059.42	0.896414
1059.55	0.894422
1059.69	0.87251
1059.82	0.890438
1059.96	0.904382
1060.09	0.888446
1060.22	0.886454
1060.36	0.880478
1060.49	0.920319
1060.62	0.926295
1060.76	0.88247
1060.89	0.920319
1061.03	0.898406
1061.16	0.900398
1061.29	0.908367
1061.43	0.904382
1061.56	0.912351
1061.69	0.928287
1061.83	0.884462
1061.96	0.898406
1062.1	0.894422
1062.23	0.900398
1062.36	0.922311
1062.5	0.916335
1062.63	0.908367
1062.76	0.908367
1062.9	0.914343
1063.03	0.926295
1063.17	0.934263
1063.3	0.898406
1063.43	0.912351
1063.57	0.910359
1063.7	0.884462
1063.83	0.914343
1063.97	0.908367
1064.1	0.920319
1064.23	0.908367
1064.37	0.898406
1064.5	0.906375
1064.64	0.894422
1064.77	0.884462
1064.9	0.888446
1065.04	0.918327
1065.17	0.890438
1065.3	0.898406
1065.44	0.928287
1065.57	0.904382
1065.71	0.914343
1065.84	0.890438
1065.97	0.924303
1066.11	0.884462
1066.24	0.888446
1066.37	0.89243
1066.51	0.936255
1066.64	0.890438
1066.78	0.920319
1066.91	0.924303
1067.04	0.914343
1067.18	0.896414
1067.31	0.896414
1067.44	0.866534
1067.58	0.906375
1067.71	0.876494
1067.85	0.88247
1067.98	0.90239
1068.11	0.898406
1068.25	0.928287
1068.38	0.886454
1068.51	0.916335
1068.65	0.918327
1068.78	0.900398
1068.92	0.914343
1069.05	0.89243
1069.18	0.896414
1069.32	0.918327
1069.45	0.90239
1069.58	0.874502
1069.72	0.926295
1069.85	0.900398
1069.98	0.912351
1070.12	0.898406
1070.25	0.922311
1070.39	0.874502
1070.52	0.920319
1070.65	0.90239
1070.79	0.896414
1070.92	0.914343
1071.05	0.932271
1071.19	0.880478
1071.32	0.896414
1071.46	0.914343
1071.59	0.922311
1071.72	0.922311
1071.86	0.924303
1071.99	0.878486
1072.12	0.920319
1072.26	0.916335
1072.39	0.886454
1072.53	0.900398
1072.66	0.924303
1072.79	0.886454
1072.93	0.906375
1073.06	0.916335
1073.19	0.896414
1073.33	0.854582
1073.46	0.89243
1073.59	0.922311
1073.73	0.912351
1073.86	0.898406
1074	0.906375
1074.13	0.906375
1074.26	0.884462
1074.4	0.898406
1074.53	0.906375
1074.66	0.938247
1074.8	0.876494
1074.93	0.890438
1075.07	0.900398
1075.2	0.894422
1075.33	0.876494
1075.47	0.914343
1075.6	0.922311
1075.73	0.890438
1075.87	0.900398
1076	0.894422
1076.14	0.898406
1076.27	0.894422
1076.4	0.880478
1076.54	0.89243
1076.67	0.914343
1076.8	0.908367
1076.94	0.900398
1077.07	0.896414
1077.2	0.898406
1077.34	0.910359
1077.47	0.896414
1077.61	0.888446
1077.74	0.89243
1077.87	0.894422
1078.01	0.914343
1078.14	0.900398
1078.27	0.90239
1078.41	0.928287
1078.54	0.910359
1078.68	0.922311
1078.81	0.942231
1078.94	0.894422
1079.08	0.942231
1079.21	0.914343
1079.34	0.928287
1079.48	0.928287
1079.61	0.886454
1079.74	0.914343
1079.88	0.89243
1080.01	0.90239
1080.15	0.90239
1080.28	0.914343
1080.41	0.894422
1080.55	0.888446
1080.68	0.898406
1080.81	0.886454
1080.95	0.896414
1081.08	0.910359
1081.22	0.904382
1081.35	0.922311
1081.48	0.898406
1081.62	0.940239
1081.75	0.914343
1081.88	0.922311
1082.02	0.890438
1082.15	0.944223
1082.28	0.886454
1082.42	0.888446
1082.55	0.898406
1082.69	0.900398
1082.82	0.910359
1082.95	0.90239
1083.09	0.874502
1083.22	0.910359
1083.35	0.904382
1083.49	0.906375
1083.62	0.898406
1083.75	0.908367
1083.89	0.918327
1084.02	0.890438
1084.16	0.906375
1084.29	0.920319
1084.42	0.898406
1084.56	0.904382
1084.69	0.918327
1084.82	0.904382
1084.96	0.906375
1085.09	0.88247
1085.23	0.89243
1085.36	0.926295
1085.49	0.904382
1085.63	0.900398
1085.76	0.906375
1085.89	0.888446
1086.03	0.888446
1086.16	0.910359
1086.29	0.900398
1086.43	0.880478
1086.56	0.908367
1086.7	0.928287
1086.83	0.880478
1086.96	0.906375
1087.1	0.900398
1087.23	0.908367
1087.36	0.912351
1087.5	0.894422
1087.63	0.912351
1087.76	0.900398
1087.9	0.900398
1088.03	0.920319
1088.17	0.888446
1088.3	0.88247
1088.43	0.890438
1088.57	0.890438
1088.7	0.912351
1088.83	0.910359
1088.97	0.90239
1089.1	0.912351
1089.24	0.90239
1089.37	0.880478
1089.5	0.920319
1089.64	0.930279
1089.77	0.926295
1089.9	0.912351
1090.04	0.914343
1090.17	0.89243
1090.3	0.896414
1090.44	0.89243
1090.57	0.904382
1090.71	0.894422
1090.84	0.914343
1090.97	0.90239
1091.11	0.888446
1091.24	0.898406
1091.37	0.866534
1091.51	0.930279
1091.64	0.930279
1091.77	0.888446
1091.91	0.940239
1092.04	0.876494
1092.18	0.912351
1092.31	0.894422
1092.44	0.924303
1092.58	0.90239
1092.71	0.898406
1092.84	0.908367
1092.98	0.922311
1093.11	0.918327
1093.24	0.912351
1093.38	0.896414
1093.51	0.930279
1093.65	0.884462
1093.78	0.884462
1093.91	0.918327
1094.05	0.938247
1094.18	0.900398
1094.31	0.938247
1094.45	0.90239
1094.58	0.886454
1094.71	0.926295
1094.85	0.924303
1094.98	0.878486
1095.12	0.898406
1095.25	0.888446
1095.38	0.908367
1095.52	0.878486
1095.65	0.936255
1095.78	0.926295
1095.92	0.906375
1096.05	0.888446
1096.18	0.880478
1096.32	0.922311
1096.45	0.906375
1096.59	0.912351
1096.72	0.914343
1096.85	0.896414
1096.99	0.908367
1097.12	0.912351
1097.25	0.920319
1097.39	0.914343
1097.52	0.910359
1097.65	0.89243
1097.79	0.890438
1097.92	0.90239
1098.06	0.90239
1098.19	0.880478
1098.32	0.906375
1098.46	0.890438
1098.59	0.906375
1098.72	0.88247
1098.86	0.906375
1098.99	0.90239
1099.12	0.898406
1099.26	0.932271
1099.39	0.896414
1099.53	0.898406
1099.66	0.89243
1099.79	0.900398
1099.93	0.90239
1100.06	0.888446
1100.19	0.914343
1100.33	0.910359
1100.46	0.906375
1100.59	0.912351
1100.73	0.924303
1100.86	0.898406
1100.99	0.880478
1101.13	0.900398
1101.26	0.896414
1101.4	0.922311
1101.53	0.878486
1101.66	0.896414
1101.8	0.876494
1101.93	0.924303
1102.06	0.894422
1102.2	0.886454
1102.33	0.878486
1102.46	0.896414
1102.6	0.914343
1102.73	0.932271
1102.87	0.880478
1103	0.89243
1103.13	0.928287
1103.27	0.922311
1103.4	0.914343
1103.53	0.916335
1103.67	0.876494
1103.8	0.896414
1103.93	0.88247
1104.07	0.912351
1104.2	0.87251
1104.34	0.912351
1104.47	0.884462
1104.6	0.870518
1104.74	0.922311
1104.87	0.866534
1105	0.908367
1105.14	0.904382
1105.27	0.90239
1105.4	0.886454
1105.54	0.890438
1105.67	0.894422
1105.8	0.920319
1105.94	0.896414
1106.07	0.928287
1106.21	0.906375
1106.34	0.914343
1106.47	0.884462
1106.61	0.916335
1106.74	0.938247
1106.87	0.880478
1107.01	0.912351
1107.14	0.904382
1107.27	0.916335
1107.41	0.930279
1107.54	0.920319

