Source: Spectrum Viewer

Chart: Pulse Spectrum

Series: 
Wavelength (nm)	S (a.u.)
617.638	0.131947
617.773	0.136999
617.908	0.133432
618.043	0.134324
618.178	0.136999
618.313	0.134324
618.448	0.136107
618.583	0.133432
618.718	0.13581
618.853	0.132838
618.988	0.133135
619.123	0.136404
619.258	0.13789
619.394	0.136701
619.529	0.138782
619.664	0.134918
619.799	0.13581
619.934	0.138187
620.069	0.134621
620.204	0.138484
620.339	0.136701
620.474	0.134324
620.609	0.135215
620.744	0.136107
620.879	0.136107
621.014	0.135513
621.149	0.13581
621.284	0.135513
621.419	0.133432
621.554	0.132244
621.689	0.136404
621.825	0.130163
621.96	0.134621
622.095	0.134918
622.23	0.134621
622.365	0.133432
622.5	0.134621
622.635	0.136107
622.77	0.132244
622.905	0.134621
623.04	0.134918
623.175	0.135513
623.31	0.132541
623.445	0.136701
623.58	0.135513
623.715	0.133432
623.85	0.13789
623.985	0.134027
624.12	0.132244
624.255	0.131649
624.39	0.137593
624.525	0.135215
624.661	0.136404
624.796	0.134027
624.931	0.130461
625.066	0.137593
625.201	0.139079
625.336	0.131947
625.471	0.135215
625.606	0.133432
625.741	0.141456
625.876	0.135215
626.011	0.137296
626.146	0.138187
626.281	0.13373
626.416	0.137296
626.551	0.135215
626.686	0.132541
626.821	0.138187
626.956	0.137296
627.091	0.138187
627.226	0.134621
627.361	0.136999
627.496	0.134918
627.631	0.135215
627.766	0.137593
627.901	0.132541
628.036	0.133432
628.171	0.13581
628.307	0.137296
628.442	0.133135
628.577	0.134027
628.712	0.136701
628.847	0.132244
628.982	0.134918
629.117	0.131055
629.252	0.13581
629.387	0.134027
629.522	0.136107
629.657	0.133432
629.792	0.134621
629.927	0.136999
630.062	0.134918
630.197	0.138484
630.332	0.136107
630.467	0.136404
630.602	0.138187
630.737	0.133432
630.872	0.132244
631.007	0.130758
631.142	0.136404
631.277	0.13581
631.412	0.134027
631.547	0.132541
631.682	0.135215
631.817	0.13373
631.952	0.132244
632.087	0.13581
632.222	0.133135
632.357	0.131947
632.492	0.135215
632.627	0.137296
632.762	0.132838
632.897	0.136404
633.032	0.133135
633.167	0.134621
633.302	0.134324
633.437	0.134027
633.572	0.131649
633.707	0.135513
633.842	0.132541
633.978	0.131649
634.113	0.134324
634.248	0.135513
634.383	0.135513
634.518	0.133432
634.653	0.132244
634.788	0.139673
634.923	0.136107
635.058	0.136107
635.193	0.134324
635.328	0.136107
635.463	0.136701
635.598	0.134621
635.733	0.136404
635.868	0.137296
636.003	0.135215
636.138	0.136404
636.273	0.136701
636.408	0.136701
636.543	0.133135
636.678	0.134918
636.813	0.133432
636.948	0.135513
637.083	0.131352
637.218	0.134918
637.353	0.135215
637.488	0.136404
637.623	0.135513
637.758	0.132541
637.893	0.134324
638.028	0.132838
638.163	0.136999
638.298	0.133432
638.433	0.133432
638.568	0.137296
638.703	0.133135
638.838	0.131649
638.973	0.135513
639.108	0.138484
639.243	0.136107
639.378	0.132838
639.513	0.135215
639.648	0.132541
639.783	0.131649
639.918	0.139376
640.053	0.130758
640.188	0.133432
640.323	0.139376
640.458	0.131649
640.593	0.134621
640.728	0.135513
640.863	0.13581
640.998	0.133432
641.133	0.132541
641.268	0.13581
641.403	0.134918
641.538	0.134918
641.673	0.135513
641.808	0.135513
641.943	0.133135
642.078	0.133432
642.213	0.13581
642.348	0.12838
642.483	0.132541
642.618	0.139079
642.753	0.133432
642.888	0.134918
643.023	0.133135
643.158	0.133432
643.293	0.138782
643.428	0.136999
643.563	0.134324
643.698	0.134918
643.833	0.132838
643.968	0.133135
644.103	0.140267
644.237	0.134324
644.372	0.13373
644.507	0.134027
644.642	0.141159
644.777	0.137296
644.912	0.133135
645.047	0.136404
645.182	0.134324
645.317	0.138782
645.452	0.131649
645.587	0.136107
645.722	0.132244
645.857	0.134918
645.992	0.136107
646.127	0.133432
646.262	0.13789
646.397	0.131649
646.532	0.13581
646.667	0.137593
646.802	0.132244
646.937	0.13581
647.072	0.137296
647.207	0.134027
647.342	0.138187
647.477	0.136107
647.612	0.134918
647.747	0.138484
647.882	0.134621
648.017	0.13789
648.152	0.138484
648.287	0.135513
648.422	0.134027
648.557	0.136404
648.692	0.134918
648.827	0.138484
648.962	0.134621
649.097	0.129569
649.232	0.133432
649.367	0.134027
649.502	0.135215
649.637	0.134918
649.772	0.135215
649.906	0.134621
650.041	0.134027
650.176	0.136404
650.311	0.134027
650.446	0.131352
650.581	0.132838
650.716	0.137593
650.851	0.140862
650.986	0.134621
651.121	0.137296
651.256	0.136404
651.391	0.132838
651.526	0.132244
651.661	0.134027
651.796	0.134918
651.931	0.138187
652.066	0.136999
652.201	0.133135
652.336	0.133135
652.471	0.132838
652.606	0.136999
652.741	0.136404
652.876	0.132244
653.011	0.135215
653.146	0.134324
653.281	0.132244
653.415	0.132244
653.55	0.132541
653.685	0.130461
653.82	0.136701
653.955	0.131055
654.09	0.134918
654.225	0.138782
654.36	0.136701
654.495	0.132838
654.63	0.13789
654.765	0.131649
654.9	0.130758
655.035	0.13581
655.17	0.131649
655.305	0.138484
655.44	0.13373
655.575	0.136107
655.71	0.131055
655.845	0.135215
655.98	0.136999
656.115	0.13581
656.25	0.138782
656.384	0.134918
656.519	0.136701
656.654	0.133432
656.789	0.136107
656.924	0.138782
657.059	0.134324
657.194	0.134027
657.329	0.135215
657.464	0.136107
657.599	0.129866
657.734	0.131947
657.869	0.13373
658.004	0.128975
658.139	0.132838
658.274	0.138782
658.409	0.136107
658.544	0.135513
658.679	0.13581
658.813	0.13373
658.948	0.134027
659.083	0.135215
659.218	0.134324
659.353	0.136404
659.488	0.132244
659.623	0.136404
659.758	0.13581
659.893	0.134621
660.028	0.134324
660.163	0.133432
660.298	0.135215
660.433	0.135513
660.568	0.136999
660.703	0.13373
660.838	0.137296
660.972	0.134027
661.107	0.134324
661.242	0.135215
661.377	0.134918
661.512	0.135215
661.647	0.135215
661.782	0.137296
661.917	0.136701
662.052	0.134027
662.187	0.138187
662.322	0.132541
662.457	0.138187
662.592	0.136107
662.727	0.136107
662.862	0.134621
662.996	0.134324
663.131	0.132541
663.266	0.134324
663.401	0.132244
663.536	0.135513
663.671	0.135215
663.806	0.134621
663.941	0.135513
664.076	0.131055
664.211	0.136701
664.346	0.136404
664.481	0.137296
664.616	0.137296
664.75	0.135215
664.885	0.129569
665.02	0.131649
665.155	0.13581
665.29	0.134918
665.425	0.131055
665.56	0.134918
665.695	0.13789
665.83	0.131947
665.965	0.138187
666.1	0.135513
666.235	0.133432
666.37	0.134027
666.504	0.135215
666.639	0.136107
666.774	0.133432
666.909	0.136107
667.044	0.138187
667.179	0.131352
667.314	0.136701
667.449	0.13581
667.584	0.133135
667.719	0.137296
667.854	0.132541
667.989	0.131649
668.123	0.134324
668.258	0.137593
668.393	0.138484
668.528	0.134324
668.663	0.132838
668.798	0.135215
668.933	0.132541
669.068	0.134027
669.203	0.136404
669.338	0.136701
669.473	0.133135
669.607	0.134918
669.742	0.131055
669.877	0.130758
670.012	0.130163
670.147	0.134918
670.282	0.132541
670.417	0.136999
670.552	0.13581
670.687	0.135215
670.822	0.132838
670.957	0.138484
671.091	0.13373
671.226	0.133135
671.361	0.138187
671.496	0.134324
671.631	0.141159
671.766	0.136107
671.901	0.135513
672.036	0.135513
672.171	0.138187
672.306	0.132838
672.44	0.135513
672.575	0.13581
672.71	0.137296
672.845	0.131947
672.98	0.134027
673.115	0.136404
673.25	0.134621
673.385	0.134027
673.52	0.136404
673.655	0.13581
673.789	0.136701
673.924	0.139079
674.059	0.136107
674.194	0.137593
674.329	0.13581
674.464	0.135513
674.599	0.131649
674.734	0.139673
674.869	0.134324
675.003	0.132541
675.138	0.139673
675.273	0.138187
675.408	0.134621
675.543	0.131947
675.678	0.13373
675.813	0.135513
675.948	0.135215
676.083	0.133135
676.217	0.132838
676.352	0.13581
676.487	0.133432
676.622	0.136107
676.757	0.134918
676.892	0.137296
677.027	0.137296
677.162	0.132244
677.297	0.132244
677.431	0.134918
677.566	0.134918
677.701	0.136107
677.836	0.135513
677.971	0.135215
678.106	0.134918
678.241	0.132541
678.376	0.136999
678.511	0.131947
678.645	0.130461
678.78	0.135513
678.915	0.135513
679.05	0.132541
679.185	0.133135
679.32	0.134324
679.455	0.131352
679.59	0.13581
679.724	0.134027
679.859	0.135215
679.994	0.137593
680.129	0.13373
680.264	0.13581
680.399	0.136404
680.534	0.131055
680.669	0.136999
680.803	0.134324
680.938	0.134027
681.073	0.136701
681.208	0.132541
681.343	0.134027
681.478	0.135215
681.613	0.135513
681.748	0.13581
681.882	0.131649
682.017	0.134027
682.152	0.130758
682.287	0.136999
682.422	0.134027
682.557	0.136404
682.692	0.139376
682.827	0.136701
682.961	0.133135
683.096	0.134918
683.231	0.136404
683.366	0.13373
683.501	0.137593
683.636	0.134918
683.771	0.131352
683.906	0.138782
684.04	0.134027
684.175	0.138484
684.31	0.13997
684.445	0.136107
684.58	0.136999
684.715	0.13789
684.85	0.13581
684.984	0.13373
685.119	0.136404
685.254	0.131352
685.389	0.137296
685.524	0.140565
685.659	0.136701
685.794	0.129866
685.928	0.13581
686.063	0.13789
686.198	0.135215
686.333	0.133135
686.468	0.136701
686.603	0.135513
686.738	0.135513
686.872	0.137593
687.007	0.13581
687.142	0.132244
687.277	0.134324
687.412	0.139673
687.547	0.139673
687.682	0.138187
687.816	0.131947
687.951	0.13581
688.086	0.133432
688.221	0.13581
688.356	0.135215
688.491	0.133432
688.626	0.136107
688.76	0.13581
688.895	0.136404
689.03	0.136701
689.165	0.13373
689.3	0.137296
689.435	0.136999
689.57	0.135215
689.704	0.132541
689.839	0.139376
689.974	0.136701
690.109	0.134324
690.244	0.13789
690.379	0.13789
690.513	0.133135
690.648	0.133432
690.783	0.13789
690.918	0.134027
691.053	0.131352
691.188	0.134918
691.323	0.136404
691.457	0.135513
691.592	0.132244
691.727	0.134621
691.862	0.137593
691.997	0.136999
692.132	0.136701
692.266	0.130758
692.401	0.132541
692.536	0.139079
692.671	0.135215
692.806	0.136404
692.941	0.134027
693.075	0.135215
693.21	0.135513
693.345	0.135513
693.48	0.135215
693.615	0.137296
693.75	0.129866
693.885	0.133432
694.019	0.133135
694.154	0.131055
694.289	0.130163
694.424	0.132838
694.559	0.138484
694.694	0.135215
694.828	0.134621
694.963	0.130461
695.098	0.136701
695.233	0.137296
695.368	0.132244
695.503	0.130758
695.637	0.134918
695.772	0.133432
695.907	0.135215
696.042	0.137593
696.177	0.140565
696.312	0.140267
696.446	0.139376
696.581	0.132541
696.716	0.140267
696.851	0.138187
696.986	0.132541
697.12	0.133135
697.255	0.137296
697.39	0.131352
697.525	0.137296
697.66	0.136404
697.795	0.135513
697.929	0.13581
698.064	0.132541
698.199	0.132541
698.334	0.13789
698.469	0.13581
698.604	0.13789
698.738	0.136999
698.873	0.135215
699.008	0.134918
699.143	0.136999
699.278	0.129569
699.412	0.136999
699.547	0.133135
699.682	0.132838
699.817	0.136999
699.952	0.137593
700.087	0.132838
700.221	0.131352
700.356	0.13373
700.491	0.136404
700.626	0.133432
700.761	0.131649
700.895	0.134621
701.03	0.13581
701.165	0.133432
701.3	0.137296
701.435	0.13789
701.57	0.134027
701.704	0.136107
701.839	0.133432
701.974	0.136999
702.109	0.136107
702.244	0.137296
702.378	0.137593
702.513	0.132838
702.648	0.136107
702.783	0.134027
702.918	0.133432
703.052	0.13581
703.187	0.134027
703.322	0.134621
703.457	0.135215
703.592	0.13373
703.727	0.135215
703.861	0.134027
703.996	0.136999
704.131	0.134918
704.266	0.136404
704.401	0.136999
704.535	0.134918
704.67	0.132838
704.805	0.135513
704.94	0.134324
705.075	0.137296
705.209	0.132244
705.344	0.131947
705.479	0.134621
705.614	0.136107
705.749	0.138187
705.883	0.130461
706.018	0.132541
706.153	0.135215
706.288	0.132244
706.423	0.130163
706.557	0.130758
706.692	0.13373
706.827	0.130461
706.962	0.130758
707.097	0.136404
707.231	0.130163
707.366	0.134918
707.501	0.136107
707.636	0.132541
707.771	0.132244
707.905	0.13373
708.04	0.135215
708.175	0.139673
708.31	0.137593
708.445	0.135513
708.579	0.138187
708.714	0.13373
708.849	0.139376
708.984	0.135215
709.118	0.135215
709.253	0.134027
709.388	0.13581
709.523	0.133135
709.658	0.13373
709.792	0.133432
709.927	0.137296
710.062	0.134324
710.197	0.138484
710.332	0.130461
710.466	0.13581
710.601	0.134324
710.736	0.136999
710.871	0.13581
711.006	0.13789
711.14	0.136107
711.275	0.136107
711.41	0.135513
711.545	0.133432
711.679	0.131055
711.814	0.135513
711.949	0.13373
712.084	0.138187
712.219	0.131352
712.353	0.137593
712.488	0.131055
712.623	0.13581
712.758	0.134027
712.892	0.13373
713.027	0.134621
713.162	0.135513
713.297	0.134918
713.432	0.133135
713.566	0.132541
713.701	0.136701
713.836	0.132541
713.971	0.134324
714.105	0.13373
714.24	0.134918
714.375	0.133432
714.51	0.135215
714.645	0.136701
714.779	0.132838
714.914	0.136404
715.049	0.134621
715.184	0.136701
715.318	0.137296
715.453	0.13373
715.588	0.13373
715.723	0.133432
715.858	0.13581
715.992	0.135215
716.127	0.131055
716.262	0.135215
716.397	0.134621
716.531	0.132541
716.666	0.132541
716.801	0.135215
716.936	0.136107
717.07	0.133135
717.205	0.138484
717.34	0.131352
717.475	0.13789
717.61	0.133135
717.744	0.13581
717.879	0.135513
718.014	0.137296
718.149	0.134621
718.283	0.132541
718.418	0.131352
718.553	0.134324
718.688	0.13789
718.822	0.134918
718.957	0.134621
719.092	0.132838
719.227	0.134027
719.361	0.13789
719.496	0.135513
719.631	0.135215
719.766	0.134621
719.9	0.135215
720.035	0.134027
720.17	0.13373
720.305	0.138782
720.44	0.133135
720.574	0.134324
720.709	0.132541
720.844	0.136999
720.979	0.135215
721.113	0.139673
721.248	0.134918
721.383	0.131947
721.518	0.135513
721.652	0.133135
721.787	0.131947
721.922	0.134027
722.057	0.131352
722.191	0.134621
722.326	0.132244
722.461	0.133135
722.596	0.136404
722.73	0.136107
722.865	0.134324
723	0.133432
723.135	0.137296
723.269	0.136999
723.404	0.128975
723.539	0.13373
723.674	0.132244
723.808	0.129569
723.943	0.137296
724.078	0.136107
724.213	0.136404
724.347	0.136404
724.482	0.134027
724.617	0.134918
724.752	0.13581
724.886	0.133432
725.021	0.136107
725.156	0.136107
725.291	0.134918
725.425	0.136999
725.56	0.136107
725.695	0.131352
725.829	0.134621
725.964	0.134918
726.099	0.135513
726.234	0.13997
726.368	0.138782
726.503	0.136999
726.638	0.136404
726.773	0.13373
726.907	0.131352
727.042	0.136404
727.177	0.134621
727.312	0.135513
727.446	0.13373
727.581	0.134027
727.716	0.131947
727.851	0.137296
727.985	0.129569
728.12	0.136701
728.255	0.139079
728.389	0.130163
728.524	0.134918
728.659	0.131947
728.794	0.135215
728.928	0.136999
729.063	0.136107
729.198	0.131649
729.333	0.138187
729.467	0.136404
729.602	0.136999
729.737	0.135215
729.872	0.13373
730.006	0.136701
730.141	0.136999
730.276	0.134621
730.41	0.140267
730.545	0.136701
730.68	0.132838
730.815	0.13581
730.949	0.13581
731.084	0.139079
731.219	0.134918
731.354	0.134324
731.488	0.139079
731.623	0.139376
731.758	0.136999
731.892	0.135513
732.027	0.135513
732.162	0.12838
732.297	0.134324
732.431	0.13373
732.566	0.134918
732.701	0.131055
732.835	0.134027
732.97	0.133432
733.105	0.136701
733.24	0.13581
733.374	0.134918
733.509	0.138782
733.644	0.134918
733.779	0.134324
733.913	0.136404
734.048	0.132541
734.183	0.134027
734.317	0.136107
734.452	0.138187
734.587	0.138484
734.722	0.139376
734.856	0.131055
734.991	0.131649
735.126	0.136701
735.26	0.132541
735.395	0.137593
735.53	0.133135
735.665	0.134621
735.799	0.133432
735.934	0.132541
736.069	0.137296
736.203	0.136701
736.338	0.134027
736.473	0.134027
736.607	0.13581
736.742	0.128678
736.877	0.133135
737.012	0.136999
737.146	0.134621
737.281	0.134621
737.416	0.131352
737.55	0.132838
737.685	0.137296
737.82	0.132541
737.955	0.138187
738.089	0.137593
738.224	0.134027
738.359	0.131649
738.493	0.138782
738.628	0.134324
738.763	0.134027
738.897	0.137593
739.032	0.13373
739.167	0.131352
739.302	0.135215
739.436	0.136107
739.571	0.138484
739.706	0.13997
739.84	0.134621
739.975	0.136107
740.11	0.133432
740.244	0.135215
740.379	0.135513
740.514	0.134918
740.649	0.135215
740.783	0.139079
740.918	0.135513
741.053	0.13373
741.187	0.134621
741.322	0.134621
741.457	0.136701
741.591	0.135513
741.726	0.134918
741.861	0.135215
741.996	0.131649
742.13	0.138782
742.265	0.136404
742.4	0.137296
742.534	0.137296
742.669	0.133432
742.804	0.13581
742.938	0.138187
743.073	0.137593
743.208	0.136404
743.342	0.134621
743.477	0.134918
743.612	0.134027
743.747	0.133432
743.881	0.136701
744.016	0.138187
744.151	0.136999
744.285	0.135215
744.42	0.13789
744.555	0.136404
744.689	0.138484
744.824	0.13581
744.959	0.13789
745.093	0.138187
745.228	0.133135
745.363	0.136107
745.497	0.131947
745.632	0.136107
745.767	0.132541
745.901	0.133432
746.036	0.134324
746.171	0.132541
746.305	0.132541
746.44	0.136107
746.575	0.139079
746.71	0.13581
746.844	0.134027
746.979	0.137593
747.114	0.137296
747.248	0.135215
747.383	0.137296
747.518	0.134621
747.652	0.134027
747.787	0.129569
747.922	0.133432
748.056	0.134621
748.191	0.138484
748.326	0.134621
748.46	0.129866
748.595	0.131352
748.73	0.140862
748.864	0.136999
748.999	0.135513
749.134	0.136107
749.268	0.136404
749.403	0.131352
749.538	0.135215
749.672	0.135215
749.807	0.136404
749.942	0.134918
750.076	0.133432
750.211	0.131649
750.346	0.134918
750.48	0.136701
750.615	0.132541
750.75	0.132244
750.884	0.13581
751.019	0.134621
751.154	0.136999
751.288	0.131352
751.423	0.13789
751.558	0.136107
751.692	0.138187
751.827	0.138782
751.962	0.137296
752.096	0.13789
752.231	0.135215
752.366	0.135215
752.5	0.136701
752.635	0.135513
752.77	0.132244
752.904	0.142645
753.039	0.133432
753.174	0.133135
753.308	0.135215
753.443	0.13373
753.578	0.131649
753.712	0.136107
753.847	0.138187
753.982	0.134324
754.116	0.13373
754.251	0.136107
754.386	0.13373
754.52	0.136107
754.655	0.13373
754.79	0.133135
754.924	0.132838
755.059	0.132244
755.194	0.138782
755.328	0.134027
755.463	0.136701
755.597	0.132244
755.732	0.139079
755.867	0.134324
756.001	0.13997
756.136	0.13789
756.271	0.132838
756.405	0.137296
756.54	0.136404
756.675	0.13789
756.809	0.134621
756.944	0.13581
757.079	0.136999
757.213	0.134324
757.348	0.137296
757.483	0.132244
757.617	0.136404
757.752	0.133135
757.887	0.134621
758.021	0.132838
758.156	0.134324
758.29	0.133135
758.425	0.134324
758.56	0.136999
758.694	0.132838
758.829	0.132838
758.964	0.139673
759.098	0.132244
759.233	0.134027
759.368	0.13581
759.502	0.138782
759.637	0.136701
759.772	0.135215
759.906	0.131055
760.041	0.136107
760.175	0.134621
760.31	0.136701
760.445	0.137593
760.579	0.136404
760.714	0.134027
760.849	0.134621
760.983	0.136701
761.118	0.130758
761.253	0.134324
761.387	0.133135
761.522	0.137593
761.656	0.134324
761.791	0.131649
761.926	0.134918
762.06	0.133432
762.195	0.135513
762.33	0.133432
762.464	0.135513
762.599	0.132541
762.733	0.13581
762.868	0.136999
763.003	0.135215
763.137	0.131947
763.272	0.133135
763.407	0.135513
763.541	0.134324
763.676	0.137296
763.811	0.132244
763.945	0.136107
764.08	0.132244
764.214	0.136999
764.349	0.135215
764.484	0.135215
764.618	0.135513
764.753	0.136107
764.888	0.131055
765.022	0.136999
765.157	0.134027
765.291	0.134621
765.426	0.134324
765.561	0.132838
765.695	0.135215
765.83	0.136999
765.965	0.134918
766.099	0.130461
766.234	0.134621
766.368	0.130461
766.503	0.132838
766.638	0.136701
766.772	0.136107
766.907	0.135513
767.041	0.132541
767.176	0.136404
767.311	0.136404
767.445	0.13373
767.58	0.13373
767.715	0.131352
767.849	0.13581
767.984	0.135215
768.118	0.138782
768.253	0.141159
768.388	0.137593
768.522	0.136999
768.657	0.136701
768.791	0.134918
768.926	0.134918
769.061	0.134027
769.195	0.132541
769.33	0.139673
769.465	0.131352
769.599	0.136701
769.734	0.132244
769.868	0.139079
770.003	0.136107
770.138	0.132838
770.272	0.136107
770.407	0.136107
770.541	0.136404
770.676	0.134324
770.811	0.135215
770.945	0.136999
771.08	0.132838
771.214	0.136999
771.349	0.134324
771.484	0.136404
771.618	0.133432
771.753	0.137593
771.887	0.134324
772.022	0.133135
772.157	0.139376
772.291	0.138187
772.426	0.133432
772.56	0.138484
772.695	0.133135
772.83	0.133135
772.964	0.135215
773.099	0.136404
773.233	0.134918
773.368	0.136107
773.503	0.133135
773.637	0.136404
773.772	0.134918
773.906	0.136999
774.041	0.13373
774.176	0.133135
774.31	0.138782
774.445	0.13373
774.579	0.131947
774.714	0.134918
774.849	0.138782
774.983	0.13581
775.118	0.13373
775.252	0.136701
775.387	0.134324
775.522	0.134027
775.656	0.134918
775.791	0.13373
775.925	0.131055
776.06	0.136404
776.195	0.133135
776.329	0.135513
776.464	0.134027
776.598	0.139376
776.733	0.136404
776.868	0.133432
777.002	0.134621
777.137	0.134621
777.271	0.134918
777.406	0.134324
777.54	0.133135
777.675	0.137296
777.81	0.134621
777.944	0.133135
778.079	0.136107
778.213	0.135215
778.348	0.13373
778.483	0.138484
778.617	0.138187
778.752	0.131649
778.886	0.136107
779.021	0.134918
779.155	0.131649
779.29	0.136404
779.425	0.134027
779.559	0.13373
779.694	0.133135
779.828	0.134324
779.963	0.136107
780.098	0.13789
780.232	0.136107
780.367	0.129866
780.501	0.134324
780.636	0.13373
780.77	0.136701
780.905	0.132541
781.04	0.132838
781.174	0.135215
781.309	0.13789
781.443	0.134324
781.578	0.132541
781.712	0.134027
781.847	0.131649
781.982	0.13373
782.116	0.134918
782.251	0.138484
782.385	0.134918
782.52	0.13581
782.654	0.136999
782.789	0.131947
782.924	0.136107
783.058	0.134621
783.193	0.137593
783.327	0.134027
783.462	0.134027
783.596	0.134621
783.731	0.137593
783.866	0.132541
784	0.135513
784.135	0.134324
784.269	0.132838
784.404	0.132244
784.538	0.13789
784.673	0.13581
784.808	0.134918
784.942	0.132244
785.077	0.136107
785.211	0.134918
785.346	0.130758
785.48	0.132838
785.615	0.131055
785.75	0.131055
785.884	0.137593
786.019	0.132244
786.153	0.133135
786.288	0.138484
786.422	0.13581
786.557	0.134324
786.691	0.136999
786.826	0.132838
786.961	0.131055
787.095	0.134324
787.23	0.132244
787.364	0.134324
787.499	0.134621
787.633	0.136107
787.768	0.135513
787.902	0.137296
788.037	0.13581
788.172	0.135215
788.306	0.134324
788.441	0.133135
788.575	0.134621
788.71	0.136404
788.844	0.140267
788.979	0.133135
789.113	0.138484
789.248	0.133432
789.383	0.134324
789.517	0.13373
789.652	0.134027
789.786	0.130163
789.921	0.138187
790.055	0.136404
790.19	0.133432
790.324	0.131055
790.459	0.137296
790.594	0.136701
790.728	0.139079
790.863	0.13373
790.997	0.131055
791.132	0.136404
791.266	0.135215
791.401	0.134621
791.535	0.139376
791.67	0.137296
791.804	0.135215
791.939	0.131947
792.074	0.137296
792.208	0.134027
792.343	0.131947
792.477	0.136999
792.612	0.134621
792.746	0.133432
792.881	0.134324
793.015	0.135513
793.15	0.142645
793.284	0.13581
793.419	0.133135
793.553	0.131947
793.688	0.131352
793.823	0.136107
793.957	0.131947
794.092	0.137296
794.226	0.134027
794.361	0.13373
794.495	0.134324
794.63	0.134918
794.764	0.131352
794.899	0.135513
795.033	0.134918
795.168	0.133135
795.302	0.136701
795.437	0.134621
795.572	0.133135
795.706	0.136701
795.841	0.140267
795.975	0.134621
796.11	0.134621
796.244	0.134621
796.379	0.134027
796.513	0.138187
796.648	0.134027
796.782	0.13581
796.917	0.13373
797.051	0.136999
797.186	0.13581
797.32	0.136107
797.455	0.136999
797.589	0.136107
797.724	0.134621
797.859	0.133432
797.993	0.137296
798.128	0.134027
798.262	0.136107
798.397	0.131352
798.531	0.132838
798.666	0.131649
798.8	0.131947
798.935	0.138484
799.069	0.135215
799.204	0.135513
799.338	0.136999
799.473	0.133135
799.607	0.138782
799.742	0.136999
799.876	0.133135
800.011	0.132838
800.145	0.137593
800.28	0.135513
800.414	0.138187
800.549	0.135215
800.683	0.134918
800.818	0.133432
800.953	0.138782
801.087	0.133432
801.222	0.137296
801.356	0.135513
801.491	0.136701
801.625	0.134324
801.76	0.132838
801.894	0.133432
802.029	0.136404
802.163	0.13581
802.298	0.136107
802.432	0.135513
802.567	0.135215
802.701	0.137593
802.836	0.134027
802.97	0.136107
803.105	0.133135
803.239	0.13373
803.374	0.131947
803.508	0.137593
803.643	0.136107
803.777	0.13581
803.912	0.133432
804.046	0.130758
804.181	0.132541
804.315	0.131352
804.45	0.136999
804.584	0.13581
804.719	0.13581
804.853	0.136701
804.988	0.135513
805.122	0.138782
805.257	0.129866
805.391	0.134918
805.526	0.13373
805.66	0.139376
805.795	0.134621
805.929	0.137593
806.064	0.131649
806.198	0.136404
806.333	0.135215
806.467	0.134027
806.602	0.132838
806.736	0.131947
806.871	0.137296
807.005	0.13789
807.14	0.132244
807.274	0.135513
807.409	0.135513
807.543	0.130758
807.678	0.137593
807.812	0.136701
807.947	0.138782
808.081	0.131947
808.216	0.134918
808.35	0.139376
808.485	0.138782
808.619	0.136701
808.754	0.136999
808.888	0.132838
809.023	0.132838
809.157	0.135513
809.292	0.13789
809.426	0.136404
809.561	0.130758
809.695	0.139079
809.83	0.13581
809.964	0.13373
810.099	0.142348
810.233	0.135215
810.368	0.137593
810.502	0.13581
810.637	0.13997
810.771	0.138782
810.906	0.138484
811.04	0.137593
811.175	0.13997
811.309	0.138484
811.444	0.138187
811.578	0.138187
811.713	0.13373
811.847	0.138782
811.982	0.134621
812.116	0.139079
812.251	0.136999
812.385	0.13789
812.519	0.139673
812.654	0.139079
812.788	0.140565
812.923	0.144428
813.057	0.135215
813.192	0.143239
813.326	0.141456
813.461	0.145617
813.595	0.1474
813.73	0.162853
813.864	0.209807
813.999	0.212779
814.133	0.251709
814.268	0.498366
814.402	0.626746
814.537	0.373848
814.671	0.359287
814.806	0.52838
814.94	0.633284
815.075	0.893314
815.209	1
815.344	0.444874
815.478	0.164042
815.612	0.148291
815.747	0.145914
815.881	0.139673
816.016	0.144131
816.15	0.13581
816.285	0.138187
816.419	0.137593
816.554	0.136999
816.688	0.13789
816.823	0.136404
816.957	0.139079
817.092	0.138782
817.226	0.132244
817.361	0.138484
817.495	0.139079
817.63	0.136999
817.764	0.135513
817.898	0.138187
818.033	0.132541
818.167	0.138187
818.302	0.134621
818.436	0.141159
818.571	0.132244
818.705	0.137296
818.84	0.135215
818.974	0.13373
819.109	0.133135
819.243	0.138782
819.378	0.136107
819.512	0.139079
819.646	0.135513
819.781	0.13789
819.915	0.129866
820.05	0.129272
820.184	0.13581
820.319	0.134324
820.453	0.131352
820.588	0.136701
820.722	0.132541
820.857	0.138187
820.991	0.134324
821.126	0.133432
821.26	0.137593
821.394	0.134621
821.529	0.135215
821.663	0.137296
821.798	0.134918
821.932	0.136701
822.067	0.13789
822.201	0.135215
822.336	0.134324
822.47	0.136701
822.605	0.131649
822.739	0.130461
822.873	0.134621
823.008	0.136107
823.142	0.134621
823.277	0.13373
823.411	0.139079
823.546	0.135513
823.68	0.135513
823.815	0.136404
823.949	0.131649
824.083	0.130758
824.218	0.132244
824.352	0.136701
824.487	0.135215
824.621	0.133135
824.756	0.138484
824.89	0.13789
825.025	0.134621
825.159	0.135215
825.293	0.133432
825.428	0.134621
825.562	0.136107
825.697	0.137296
825.831	0.133432
825.966	0.130758
826.1	0.136701
826.235	0.134918
826.369	0.137593
826.503	0.13373
826.638	0.13373
826.772	0.132838
826.907	0.138187
827.041	0.133135
827.176	0.134918
827.31	0.136701
827.445	0.13373
827.579	0.138484
827.713	0.130163
827.848	0.138187
827.982	0.134621
828.117	0.137296
828.251	0.134027
828.386	0.135513
828.52	0.136107
828.654	0.132838
828.789	0.138782
828.923	0.131947
829.058	0.13373
829.192	0.136107
829.327	0.133432
829.461	0.136404
829.596	0.134027
829.73	0.137593
829.864	0.133432
829.999	0.134027
830.133	0.135215
830.268	0.136107
830.402	0.134621
830.537	0.13581
830.671	0.134918
830.805	0.129866
830.94	0.138782
831.074	0.136701
831.209	0.134027
831.343	0.135513
831.478	0.136107
831.612	0.132838
831.746	0.134027
831.881	0.13373
832.015	0.135215
832.15	0.134918
832.284	0.135513
832.418	0.132838
832.553	0.135513
832.687	0.136999
832.822	0.132541
832.956	0.133432
833.091	0.132541
833.225	0.135215
833.359	0.13373
833.494	0.136701
833.628	0.134324
833.763	0.135215
833.897	0.131352
834.032	0.134324
834.166	0.134621
834.3	0.136107
834.435	0.134621
834.569	0.13373
834.704	0.138782
834.838	0.135513
834.972	0.13789
835.107	0.135215
835.241	0.135513
835.376	0.131649
835.51	0.136701
835.645	0.130758
835.779	0.132541
835.913	0.135513
836.048	0.138187
836.182	0.13789
836.317	0.132541
836.451	0.13581
836.585	0.135513
836.72	0.13581
836.854	0.134027
836.989	0.136999
837.123	0.134324
837.257	0.134324
837.392	0.135513
837.526	0.131947
837.661	0.136404
837.795	0.133432
837.929	0.135215
838.064	0.136107
838.198	0.132244
838.333	0.134918
838.467	0.134918
838.602	0.129866
838.736	0.137296
838.87	0.13373
839.005	0.130758
839.139	0.13581
839.274	0.134027
839.408	0.141159
839.542	0.136107
839.677	0.135513
839.811	0.132541
839.946	0.133135
840.08	0.134027
840.214	0.135215
840.349	0.136107
840.483	0.138484
840.618	0.13373
840.752	0.134621
840.886	0.133432
841.021	0.13581
841.155	0.13581
841.29	0.131649
841.424	0.138782
841.558	0.135215
841.693	0.136404
841.827	0.136701
841.961	0.135215
842.096	0.137593
842.23	0.139673
842.365	0.134918
842.499	0.134918
842.633	0.131352
842.768	0.131649
842.902	0.136107
843.037	0.131947
843.171	0.135513
843.305	0.133135
843.44	0.13373
843.574	0.134324
843.709	0.136999
843.843	0.134324
843.977	0.135513
844.112	0.133135
844.246	0.131649
844.381	0.134324
844.515	0.134027
844.649	0.137296
844.784	0.131352
844.918	0.136107
845.052	0.134918
845.187	0.136701
845.321	0.136107
845.456	0.133432
845.59	0.134027
845.724	0.136999
845.859	0.13581
845.993	0.136404
846.128	0.134918
846.262	0.134027
846.396	0.13373
846.531	0.136404
846.665	0.13581
846.799	0.131649
846.934	0.132244
847.068	0.13373
847.203	0.134027
847.337	0.13581
847.471	0.138782
847.606	0.134918
847.74	0.134324
847.874	0.142051
848.009	0.133432
848.143	0.137593
848.278	0.133432
848.412	0.135513
848.546	0.134621
848.681	0.134918
848.815	0.135215
848.949	0.137296
849.084	0.135513
849.218	0.131055
849.353	0.132838
849.487	0.138484
849.621	0.132244
849.756	0.134918
849.89	0.134027
850.024	0.136404
850.159	0.134027
850.293	0.134918
850.428	0.13581
850.562	0.133135
850.696	0.134918
850.831	0.134027
850.965	0.132541
851.099	0.137296
851.234	0.128975
851.368	0.132244
851.502	0.135215
851.637	0.132838
851.771	0.136404
851.906	0.13789
852.04	0.136701
852.174	0.129866
852.309	0.13373
852.443	0.134027
852.577	0.132244
852.712	0.134324
852.846	0.128678
852.98	0.131055
853.115	0.132838
853.249	0.135513
853.384	0.133135
853.518	0.135215
853.652	0.133432
853.787	0.133432
853.921	0.141753
854.055	0.131947
854.19	0.135513
854.324	0.135215
854.458	0.136999
854.593	0.136107
854.727	0.134324
854.861	0.133432
854.996	0.135215
855.13	0.134918
855.265	0.136701
855.399	0.137593
855.533	0.134027
855.668	0.135513
855.802	0.132838
855.936	0.132541
856.071	0.135513
856.205	0.131055
856.339	0.134027
856.474	0.134324
856.608	0.131649
856.742	0.13373
856.877	0.137296
857.011	0.130163
857.145	0.138187
857.28	0.137296
857.414	0.131947
857.549	0.13373
857.683	0.134027
857.817	0.13789
857.952	0.13789
858.086	0.13789
858.22	0.132244
858.355	0.135215
858.489	0.134324
858.623	0.136107
858.758	0.137593
858.892	0.137296
859.026	0.13789
859.161	0.13581
859.295	0.134918
859.429	0.138187
859.564	0.137593
859.698	0.130461
859.832	0.135215
859.967	0.134027
860.101	0.134621
860.235	0.133432
860.37	0.133432
860.504	0.13789
860.638	0.138484
860.773	0.134324
860.907	0.136404
861.041	0.137296
861.176	0.13789
861.31	0.131055
861.444	0.135513
861.579	0.137593
861.713	0.13581
861.847	0.138484
861.982	0.136107
862.116	0.136999
862.25	0.135215
862.385	0.137296
862.519	0.137593
862.653	0.132838
862.788	0.13373
862.922	0.130163
863.056	0.136701
863.191	0.133432
863.325	0.136404
863.459	0.134027
863.594	0.134027
863.728	0.138484
863.862	0.132541
863.997	0.132541
864.131	0.13581
864.265	0.136404
864.4	0.135215
864.534	0.135215
864.668	0.131055
864.803	0.13373
864.937	0.136701
865.071	0.13997
865.206	0.131055
865.34	0.132541
865.474	0.135215
865.609	0.137296
865.743	0.130461
865.877	0.134027
866.012	0.134918
866.146	0.132541
866.28	0.141159
866.415	0.137593
866.549	0.132541
866.683	0.133432
866.818	0.136404
866.952	0.132244
867.086	0.136107
867.221	0.137296
867.355	0.133432
867.489	0.137296
867.623	0.137296
867.758	0.134621
867.892	0.13581
868.026	0.134324
868.161	0.13581
868.295	0.135215
868.429	0.138484
868.564	0.135215
868.698	0.133432
868.832	0.13581
868.967	0.13581
869.101	0.135215
869.235	0.137296
869.37	0.13581
869.504	0.134918
869.638	0.138187
869.773	0.134621
869.907	0.135215
870.041	0.134027
870.175	0.135215
870.31	0.136107
870.444	0.132541
870.578	0.131352
870.713	0.138782
870.847	0.136107
870.981	0.137593
871.116	0.134324
871.25	0.130461
871.384	0.139376
871.519	0.136701
871.653	0.137296
871.787	0.136404
871.921	0.134621
872.056	0.134621
872.19	0.137296
872.324	0.139079
872.459	0.135215
872.593	0.132838
872.727	0.136999
872.862	0.139079
872.996	0.132838
873.13	0.136107
873.264	0.136404
873.399	0.13581
873.533	0.13789
873.667	0.134918
873.802	0.135215
873.936	0.134027
874.07	0.132541
874.205	0.130758
874.339	0.134027
874.473	0.137296
874.607	0.137296
874.742	0.131947
874.876	0.134621
875.01	0.136404
875.145	0.138484
875.279	0.134027
875.413	0.135215
875.548	0.13789
875.682	0.137593
875.816	0.137593
875.95	0.131649
876.085	0.13373
876.219	0.134324
876.353	0.140565
876.488	0.134324
876.622	0.139376
876.756	0.13373
876.89	0.134918
877.025	0.136999
877.159	0.136107
877.293	0.139079
877.428	0.132541
877.562	0.132838
877.696	0.133135
877.83	0.134918
877.965	0.132838
878.099	0.13373
878.233	0.138187
878.368	0.136701
878.502	0.136107
878.636	0.13581
878.77	0.138187
878.905	0.131649
879.039	0.134324
879.173	0.136107
879.308	0.138484
879.442	0.134918
879.576	0.131352
879.71	0.136404
879.845	0.134027
879.979	0.139079
880.113	0.134621
880.248	0.139079
880.382	0.131649
880.516	0.131055
880.65	0.134918
880.785	0.13373
880.919	0.134324
881.053	0.135215
881.188	0.13789
881.322	0.134324
881.456	0.134918
881.59	0.139673
881.725	0.133432
881.859	0.138484
881.993	0.134918
882.127	0.130461
882.262	0.134027
882.396	0.134621
882.53	0.135215
882.665	0.130758
882.799	0.131649
882.933	0.136999
883.067	0.135513
883.202	0.126895
883.336	0.131352
883.47	0.133135
883.604	0.136999
883.739	0.136999
883.873	0.132244
884.007	0.132244
884.142	0.134918
884.276	0.136404
884.41	0.138187
884.544	0.138484
884.679	0.130163
884.813	0.132838
884.947	0.135513
885.081	0.13581
885.216	0.131947
885.35	0.133135
885.484	0.133135
885.618	0.132838
885.753	0.136701
885.887	0.135215
886.021	0.139079
886.155	0.135215
886.29	0.135513
886.424	0.137593
886.558	0.134324
886.693	0.136701
886.827	0.131649
886.961	0.140267
887.095	0.136701
887.23	0.13581
887.364	0.135513
887.498	0.135215
887.632	0.131055
887.767	0.137593
887.901	0.135513
888.035	0.134324
888.169	0.13789
888.304	0.133135
888.438	0.130461
888.572	0.134027
888.706	0.134027
888.841	0.134918
888.975	0.130163
889.109	0.132838
889.243	0.139079
889.378	0.132244
889.512	0.134918
889.646	0.135215
889.78	0.134027
889.915	0.136107
890.049	0.136404
890.183	0.131055
890.317	0.13789
890.452	0.134918
890.586	0.135215
890.72	0.138782
890.854	0.136404
890.989	0.133135
891.123	0.135215
891.257	0.136404
891.391	0.134027
891.526	0.131352
891.66	0.133432
891.794	0.135513
891.928	0.131649
892.063	0.136701
892.197	0.130758
892.331	0.130163
892.465	0.136701
892.6	0.136701
892.734	0.135215
892.868	0.134621
893.002	0.133432
893.137	0.132838
893.271	0.132244
893.405	0.136107
893.539	0.132541
893.674	0.134027
893.808	0.134621
893.942	0.136701
894.076	0.138782
894.21	0.134621
894.345	0.135513
894.479	0.136701
894.613	0.134324
894.747	0.131947
894.882	0.136999
895.016	0.132838
895.15	0.136107
895.284	0.135215
895.419	0.133135
895.553	0.130461
895.687	0.13373
895.821	0.134324
895.956	0.137593
896.09	0.132838
896.224	0.132838
896.358	0.137593
896.492	0.136107
896.627	0.1263
896.761	0.133432
896.895	0.134324
897.029	0.138484
897.164	0.133432
897.298	0.13373
897.432	0.134918
897.566	0.134918
897.701	0.137296
897.835	0.136404
897.969	0.135513
898.103	0.13581
898.237	0.140565
898.372	0.136999
898.506	0.138484
898.64	0.13373
898.774	0.135513
898.909	0.136701
899.043	0.137593
899.177	0.137296
899.311	0.135215
899.445	0.135215
899.58	0.134324
899.714	0.131947
899.848	0.136107
899.982	0.134918
900.117	0.136999
900.251	0.136404
900.385	0.129866
900.519	0.134918
900.653	0.134324
900.788	0.134621
900.922	0.134918
901.056	0.139673
901.19	0.134918
901.325	0.135215
901.459	0.134621
901.593	0.134324
901.727	0.134918
901.861	0.134027
901.996	0.134918
902.13	0.135215
902.264	0.137296
902.398	0.134324
902.532	0.135215
902.667	0.131352
902.801	0.132838
902.935	0.135215
903.069	0.13581
903.204	0.136999
903.338	0.136404
903.472	0.134918
903.606	0.13373
903.74	0.132838
903.875	0.133135
904.009	0.134027
904.143	0.132541
904.277	0.134621
904.411	0.133135
904.546	0.137296
904.68	0.132541
904.814	0.134027
904.948	0.137296
905.082	0.131947
905.217	0.134324
905.351	0.138782
905.485	0.134918
905.619	0.13373
905.753	0.134621
905.888	0.132838
906.022	0.133135
906.156	0.138187
906.29	0.135215
906.424	0.136107
906.559	0.136404
906.693	0.137296
906.827	0.134918
906.961	0.135215
907.095	0.136404
907.23	0.132541
907.364	0.131649
907.498	0.134621
907.632	0.133135
907.766	0.13373
907.901	0.137296
908.035	0.138484
908.169	0.133432
908.303	0.132541
908.437	0.134324
908.572	0.133432
908.706	0.136107
908.84	0.134324
908.974	0.134918
909.108	0.136107
909.243	0.137593
909.377	0.133432
909.511	0.137593
909.645	0.13581
909.779	0.135513
909.914	0.13581
910.048	0.136701
910.182	0.136701
910.316	0.132838
910.45	0.135215
910.585	0.134027
910.719	0.131947
910.853	0.13373
910.987	0.133432
911.121	0.134027
911.255	0.137296
911.39	0.132838
911.524	0.132541
911.658	0.136107
911.792	0.136107
911.926	0.136107
912.061	0.136701
912.195	0.136999
912.329	0.134027
912.463	0.133432
912.597	0.133432
912.732	0.135215
912.866	0.134918
913	0.134918
913.134	0.13789
913.268	0.133135
913.402	0.136404
913.537	0.136701
913.671	0.134621
913.805	0.135513
913.939	0.131649
914.073	0.136701
914.208	0.134027
914.342	0.134027
914.476	0.134027
914.61	0.130163
914.744	0.132244
914.878	0.134621
915.013	0.132244
915.147	0.130758
915.281	0.134621
915.415	0.13789
915.549	0.131352
915.683	0.134621
915.818	0.138187
915.952	0.136701
916.086	0.134324
916.22	0.137296
916.354	0.134918
916.488	0.132541
916.623	0.134621
916.757	0.132541
916.891	0.134027
917.025	0.13581
917.159	0.13581
917.293	0.134324
917.428	0.132838
917.562	0.134027
917.696	0.13581
917.83	0.138484
917.964	0.131947
918.098	0.135215
918.233	0.135513
918.367	0.13789
918.501	0.132838
918.635	0.135215
918.769	0.139376
918.903	0.139079
919.038	0.131055
919.172	0.138484
919.306	0.131055
919.44	0.134027
919.574	0.133432
919.708	0.134918
919.843	0.131649
919.977	0.134621
920.111	0.130758
920.245	0.135513
920.379	0.139376
920.513	0.137593
920.648	0.134918
920.782	0.137296
920.916	0.13581
921.05	0.134027
921.184	0.136999
921.318	0.135215
921.453	0.136701
921.587	0.137593
921.721	0.136999
921.855	0.134918
921.989	0.134621
922.123	0.135215
922.257	0.134324
922.392	0.134027
922.526	0.13789
922.66	0.136404
922.794	0.136999
922.928	0.135513
923.062	0.136107
923.197	0.134621
923.331	0.131649
923.465	0.136999
923.599	0.13373
923.733	0.134621
923.867	0.136404
924.001	0.129569
924.136	0.134324
924.27	0.135215
924.404	0.138782
924.538	0.133432
924.672	0.131055
924.806	0.131352
924.94	0.134027
925.075	0.134918
925.209	0.135215
925.343	0.134621
925.477	0.134027
925.611	0.134918
925.745	0.13581
925.879	0.130163
926.014	0.135513
926.148	0.136107
926.282	0.136999
926.416	0.13789
926.55	0.131649
926.684	0.138187
926.818	0.13789
926.953	0.133432
927.087	0.131649
927.221	0.13789
927.355	0.137296
927.489	0.133432
927.623	0.135215
927.757	0.137296
927.892	0.131947
928.026	0.13581
928.16	0.137296
928.294	0.13581
928.428	0.134027
928.562	0.136404
928.696	0.133432
928.831	0.138187
928.965	0.133432
929.099	0.134918
929.233	0.134918
929.367	0.134027
929.501	0.131947
929.635	0.137296
929.769	0.135215
929.904	0.138782
930.038	0.13373
930.172	0.136999
930.306	0.135513
930.44	0.134027
930.574	0.132838
930.708	0.133432
930.843	0.13373
930.977	0.13581
931.111	0.132838
931.245	0.134324
931.379	0.13581
931.513	0.129272
931.647	0.134918
931.781	0.133432
931.916	0.128975
932.05	0.135215
932.184	0.129569
932.318	0.134027
932.452	0.137593
932.586	0.132838
932.72	0.139079
932.854	0.136107
932.989	0.136107
933.123	0.138782
933.257	0.134621
933.391	0.135215
933.525	0.13373
933.659	0.136404
933.793	0.134027
933.927	0.134027
934.061	0.128975
934.196	0.133135
934.33	0.136404
934.464	0.136999
934.598	0.139079
934.732	0.134324
934.866	0.137296
935	0.140862
935.134	0.135215
935.269	0.131352
935.403	0.134027
935.537	0.135215
935.671	0.134621
935.805	0.132541
935.939	0.139376
936.073	0.131649
936.207	0.135513
936.341	0.134324
936.476	0.129569
936.61	0.134027
936.744	0.131352
936.878	0.13373
937.012	0.13581
937.146	0.13789
937.28	0.133135
937.414	0.134621
937.548	0.132838
937.683	0.139376
937.817	0.13373
937.951	0.13789
938.085	0.135215
938.219	0.132244
938.353	0.137593
938.487	0.133135
938.621	0.138187
938.755	0.134324
938.889	0.137593
939.024	0.132244
939.158	0.133432
939.292	0.134918
939.426	0.132838
939.56	0.132244
939.694	0.132244
939.828	0.13373
939.962	0.131649
940.096	0.135513
940.231	0.134918
940.365	0.134027
940.499	0.135513
940.633	0.135513
940.767	0.132244
940.901	0.137593
941.035	0.135215
941.169	0.133432
941.303	0.134918
941.437	0.132244
941.571	0.136404
941.706	0.135513
941.84	0.136701
941.974	0.13373
942.108	0.133432
942.242	0.132244
942.376	0.13789
942.51	0.132541
942.644	0.132244
942.778	0.134621
942.912	0.137593
943.047	0.133135
943.181	0.134918
943.315	0.13581
943.449	0.139376
943.583	0.135215
943.717	0.13373
943.851	0.134621
943.985	0.136701
944.119	0.13373
944.253	0.138187
944.387	0.138484
944.522	0.137296
944.656	0.134918
944.79	0.134918
944.924	0.134324
945.058	0.13373
945.192	0.136404
945.326	0.134621
945.46	0.136107
945.594	0.136701
945.728	0.132838
945.862	0.136107
945.996	0.133135
946.131	0.13581
946.265	0.132541
946.399	0.132838
946.533	0.132244
946.667	0.13373
946.801	0.133432
946.935	0.134621
947.069	0.141456
947.203	0.136701
947.337	0.136999
947.471	0.134918
947.605	0.141159
947.739	0.135513
947.874	0.132541
948.008	0.136999
948.142	0.136404
948.276	0.136404
948.41	0.132244
948.544	0.135215
948.678	0.130758
948.812	0.132541
948.946	0.13373
949.08	0.133432
949.214	0.131649
949.348	0.135215
949.482	0.135215
949.617	0.135513
949.751	0.135513
949.885	0.140862
950.019	0.13373
950.153	0.137593
950.287	0.131352
950.421	0.133135
950.555	0.137296
950.689	0.137296
950.823	0.134918
950.957	0.134918
951.091	0.131055
951.225	0.136701
951.359	0.132244
951.493	0.134324
951.628	0.13789
951.762	0.137593
951.896	0.137296
952.03	0.13581
952.164	0.136701
952.298	0.136701
952.432	0.133432
952.566	0.135513
952.7	0.134324
952.834	0.136701
952.968	0.135215
953.102	0.136701
953.236	0.134918
953.37	0.138187
953.504	0.134324
953.639	0.13581
953.773	0.134324
953.907	0.131649
954.041	0.134621
954.175	0.137296
954.309	0.136999
954.443	0.136107
954.577	0.13581
954.711	0.133135
954.845	0.136107
954.979	0.136404
955.113	0.135513
955.247	0.13373
955.381	0.137593
955.515	0.134324
955.649	0.129866
955.783	0.135215
955.917	0.134621
956.052	0.133432
956.186	0.131352
956.32	0.136107
956.454	0.134918
956.588	0.137296
956.722	0.138484
956.856	0.136404
956.99	0.131352
957.124	0.137593
957.258	0.133432
957.392	0.136107
957.526	0.132244
957.66	0.132244
957.794	0.134918
957.928	0.136701
958.062	0.13581
958.196	0.135215
958.33	0.134918
958.464	0.136107
958.598	0.133135
958.733	0.138782
958.867	0.136107
959.001	0.133135
959.135	0.137593
959.269	0.137593
959.403	0.13373
959.537	0.134027
959.671	0.137296
959.805	0.138782
959.939	0.134027
960.073	0.134324
960.207	0.134027
960.341	0.134324
960.475	0.13373
960.609	0.133135
960.743	0.13373
960.877	0.136701
961.011	0.133135
961.145	0.138484
961.279	0.134324
961.413	0.133135
961.547	0.134027
961.681	0.133135
961.815	0.136107
961.949	0.136999
962.083	0.140565
962.218	0.136404
962.352	0.133135
962.486	0.131649
962.62	0.133135
962.754	0.136999
962.888	0.136107
963.022	0.131947
963.156	0.133432
963.29	0.13373
963.424	0.133135
963.558	0.136404
963.692	0.136404
963.826	0.130758
963.96	0.137593
964.094	0.139673
964.228	0.133135
964.362	0.134621
964.496	0.134027
964.63	0.136107
964.764	0.13581
964.898	0.133135
965.032	0.13581
965.166	0.133432
965.3	0.134324
965.434	0.13581
965.568	0.134027
965.702	0.134027
965.836	0.132244
965.97	0.137593
966.104	0.13373
966.238	0.133432
966.372	0.132541
966.506	0.134918
966.64	0.134621
966.774	0.131352
966.908	0.134324
967.043	0.132244
967.177	0.13789
967.311	0.136107
967.445	0.137296
967.579	0.13997
967.713	0.140267
967.847	0.133432
967.981	0.137296
968.115	0.136107
968.249	0.134324
968.383	0.135513
968.517	0.132244
968.651	0.138187
968.785	0.134621
968.919	0.134027
969.053	0.13997
969.187	0.134324
969.321	0.134027
969.455	0.137296
969.589	0.134621
969.723	0.134621
969.857	0.133135
969.991	0.13789
970.125	0.131947
970.259	0.134918
970.393	0.136107
970.527	0.136701
970.661	0.134027
970.795	0.133432
970.929	0.135215
971.063	0.133432
971.197	0.136701
971.331	0.135513
971.465	0.138187
971.599	0.13789
971.733	0.132838
971.867	0.132838
972.001	0.133135
972.135	0.133135
972.269	0.139376
972.403	0.136701
972.537	0.132541
972.671	0.137593
972.805	0.136107
972.939	0.134621
973.073	0.137593
973.207	0.13581
973.341	0.133432
973.475	0.134621
973.609	0.132838
973.743	0.136404
973.877	0.134621
974.011	0.136701
974.145	0.134621
974.279	0.134324
974.413	0.136999
974.547	0.135215
974.681	0.135513
974.815	0.134918
974.949	0.132838
975.083	0.135513
975.217	0.136107
975.351	0.135215
975.485	0.135215
975.619	0.134918
975.753	0.134324
975.887	0.131947
976.021	0.134918
976.155	0.135513
976.289	0.134027
976.423	0.130758
976.557	0.13581
976.691	0.137296
976.825	0.133432
976.959	0.132838
977.093	0.135215
977.227	0.132541
977.361	0.134621
977.495	0.13373
977.629	0.129569
977.763	0.130758
977.897	0.134621
978.031	0.134324
978.165	0.134621
978.299	0.136701
978.433	0.134918
978.567	0.138187
978.701	0.135513
978.835	0.136107
978.969	0.131055
979.103	0.13789
979.237	0.135215
979.371	0.136404
979.505	0.132838
979.639	0.137593
979.773	0.138187
979.907	0.135513
980.041	0.133135
980.175	0.13789
980.308	0.135215
980.442	0.137593
980.576	0.134324
980.71	0.134918
980.844	0.138782
980.978	0.129569
981.112	0.136701
981.246	0.136107
981.38	0.131055
981.514	0.136999
981.648	0.13373
981.782	0.130461
981.916	0.13581
982.05	0.136107
982.184	0.135513
982.318	0.134918
982.452	0.136701
982.586	0.136701
982.72	0.135513
982.854	0.132541
982.988	0.135215
983.122	0.134027
983.256	0.142348
983.39	0.132838
983.524	0.134324
983.658	0.134918
983.792	0.135215
983.926	0.133135
984.06	0.134621
984.194	0.132541
984.328	0.13581
984.462	0.133135
984.596	0.137296
984.73	0.132838
984.864	0.12838
984.998	0.130758
985.132	0.13373
985.265	0.137296
985.399	0.132838
985.533	0.134621
985.667	0.132244
985.801	0.133135
985.935	0.134324
986.069	0.136701
986.203	0.131055
986.337	0.132838
986.471	0.131649
986.605	0.137296
986.739	0.13581
986.873	0.135513
987.007	0.134027
987.141	0.132838
987.275	0.138484
987.409	0.135513
987.543	0.134621
987.677	0.136107
987.811	0.136999
987.945	0.134918
988.079	0.136701
988.213	0.133135
988.347	0.137296
988.481	0.13581
988.614	0.133135
988.748	0.131947
988.882	0.13581
989.016	0.134918
989.15	0.130163
989.284	0.137593
989.418	0.136999
989.552	0.137296
989.686	0.132541
989.82	0.131947
989.954	0.139079
990.088	0.136999
990.222	0.131352
990.356	0.138187
990.49	0.131055
990.624	0.134324
990.758	0.134324
990.892	0.136404
991.026	0.135215
991.16	0.13581
991.294	0.133135
991.427	0.134324
991.561	0.134918
991.695	0.131947
991.829	0.134027
991.963	0.138484
992.097	0.141753
992.231	0.137296
992.365	0.130758
992.499	0.136404
992.633	0.134027
992.767	0.137296
992.901	0.136404
993.035	0.132838
993.169	0.13373
993.303	0.135215
993.437	0.136701
993.571	0.130758
993.704	0.13581
993.838	0.129569
993.972	0.135513
994.106	0.134918
994.24	0.135513
994.374	0.134324
994.508	0.132244
994.642	0.132838
994.776	0.137593
994.91	0.136701
995.044	0.136107
995.178	0.136701
995.312	0.13373
995.446	0.133432
995.58	0.131055
995.714	0.136404
995.847	0.136999
995.981	0.131352
996.115	0.136999
996.249	0.134027
996.383	0.133432
996.517	0.136107
996.651	0.131947
996.785	0.13373
996.919	0.138187
997.053	0.13373
997.187	0.135513
997.321	0.137593
997.455	0.134918
997.589	0.132838
997.722	0.133432
997.856	0.13789
997.99	0.13789
998.124	0.132541
998.258	0.132541
998.392	0.131947
998.526	0.133135
998.66	0.135513
998.794	0.13581
998.928	0.135513
999.062	0.132838
999.196	0.131352
999.33	0.135215
999.464	0.134918
999.597	0.139673
999.731	0.131947
999.865	0.133432
999.999	0.128678
1000.13	0.134918
1000.27	0.129272
1000.4	0.138187
1000.53	0.134027
1000.67	0.136999
1000.8	0.134621
1000.94	0.129569
1001.07	0.133432
1001.2	0.134027
1001.34	0.132838
1001.47	0.132541
1001.61	0.134324
1001.74	0.134027
1001.87	0.140862
1002.01	0.138187
1002.14	0.135513
1002.28	0.13373
1002.41	0.134324
1002.54	0.134324
1002.68	0.137593
1002.81	0.134621
1002.95	0.136404
1003.08	0.136107
1003.21	0.132244
1003.35	0.135513
1003.48	0.134918
1003.61	0.139079
1003.75	0.13373
1003.88	0.136404
1004.02	0.135513
1004.15	0.133432
1004.28	0.13581
1004.42	0.137593
1004.55	0.132838
1004.69	0.13581
1004.82	0.132541
1004.95	0.134324
1005.09	0.134918
1005.22	0.135215
1005.36	0.132541
1005.49	0.135513
1005.62	0.136701
1005.76	0.134027
1005.89	0.136999
1006.03	0.13581
1006.16	0.135513
1006.29	0.135215
1006.43	0.131055
1006.56	0.136404
1006.69	0.133135
1006.83	0.133135
1006.96	0.136107
1007.1	0.136701
1007.23	0.131649
1007.36	0.138187
1007.5	0.131352
1007.63	0.134324
1007.77	0.134027
1007.9	0.135513
1008.03	0.136701
1008.17	0.134621
1008.3	0.138187
1008.44	0.132244
1008.57	0.136404
1008.7	0.136107
1008.84	0.136107
1008.97	0.136701
1009.1	0.135513
1009.24	0.131649
1009.37	0.135215
1009.51	0.136404
1009.64	0.12838
1009.77	0.136107
1009.91	0.135215
1010.04	0.134621
1010.18	0.129866
1010.31	0.133432
1010.44	0.13789
1010.58	0.138782
1010.71	0.13789
1010.85	0.135215
1010.98	0.132244
1011.11	0.135513
1011.25	0.134621
1011.38	0.134918
1011.51	0.131352
1011.65	0.135215
1011.78	0.138187
1011.92	0.138484
1012.05	0.134027
1012.18	0.135513
1012.32	0.136999
1012.45	0.133135
1012.59	0.135513
1012.72	0.134324
1012.85	0.139376
1012.99	0.139079
1013.12	0.131352
1013.26	0.138187
1013.39	0.134324
1013.52	0.131055
1013.66	0.133135
1013.79	0.136107
1013.92	0.13373
1014.06	0.135215
1014.19	0.133432
1014.33	0.139376
1014.46	0.135513
1014.59	0.135215
1014.73	0.137593
1014.86	0.135513
1015	0.129866
1015.13	0.135215
1015.26	0.136107
1015.4	0.136404
1015.53	0.136999
1015.67	0.134918
1015.8	0.131947
1015.93	0.130758
1016.07	0.136701
1016.2	0.134918
1016.33	0.13373
1016.47	0.13373
1016.6	0.135215
1016.74	0.134324
1016.87	0.134324
1017	0.134324
1017.14	0.13373
1017.27	0.129866
1017.41	0.137296
1017.54	0.133135
1017.67	0.134324
1017.81	0.134621
1017.94	0.13581
1018.07	0.134027
1018.21	0.133432
1018.34	0.13373
1018.48	0.134324
1018.61	0.132244
1018.74	0.136107
1018.88	0.137593
1019.01	0.134324
1019.15	0.136404
1019.28	0.134621
1019.41	0.132541
1019.55	0.134621
1019.68	0.138187
1019.82	0.134324
1019.95	0.131352
1020.08	0.134621
1020.22	0.136999
1020.35	0.13373
1020.48	0.134621
1020.62	0.134027
1020.75	0.129866
1020.89	0.136404
1021.02	0.136107
1021.15	0.133135
1021.29	0.134027
1021.42	0.134918
1021.56	0.134027
1021.69	0.135215
1021.82	0.134621
1021.96	0.135215
1022.09	0.134324
1022.22	0.137296
1022.36	0.133135
1022.49	0.136107
1022.63	0.133432
1022.76	0.134027
1022.89	0.139376
1023.03	0.134918
1023.16	0.136999
1023.3	0.137296
1023.43	0.136701
1023.56	0.136999
1023.7	0.134324
1023.83	0.135215
1023.96	0.138782
1024.1	0.133432
1024.23	0.135513
1024.37	0.131649
1024.5	0.13581
1024.63	0.141159
1024.77	0.136404
1024.9	0.13581
1025.04	0.136999
1025.17	0.134621
1025.3	0.132541
1025.44	0.135513
1025.57	0.132838
1025.7	0.136404
1025.84	0.140267
1025.97	0.136107
1026.11	0.13789
1026.24	0.128975
1026.37	0.136701
1026.51	0.130163
1026.64	0.134324
1026.78	0.131649
1026.91	0.136404
1027.04	0.134324
1027.18	0.136404
1027.31	0.133135
1027.44	0.136701
1027.58	0.135513
1027.71	0.131649
1027.85	0.134324
1027.98	0.134621
1028.11	0.132838
1028.25	0.140267
1028.38	0.136404
1028.52	0.133432
1028.65	0.134324
1028.78	0.135513
1028.92	0.13581
1029.05	0.132541
1029.18	0.136404
1029.32	0.134324
1029.45	0.132244
1029.59	0.133432
1029.72	0.137296
1029.85	0.134027
1029.99	0.133432
1030.12	0.138187
1030.26	0.134027
1030.39	0.134621
1030.52	0.134621
1030.66	0.134918
1030.79	0.138187
1030.92	0.132244
1031.06	0.137593
1031.19	0.135513
1031.33	0.134324
1031.46	0.131947
1031.59	0.134621
1031.73	0.137593
1031.86	0.139376
1031.99	0.137593
1032.13	0.134918
1032.26	0.134027
1032.4	0.139673
1032.53	0.133135
1032.66	0.134621
1032.8	0.131649
1032.93	0.133432
1033.07	0.137593
1033.2	0.132541
1033.33	0.137593
1033.47	0.131352
1033.6	0.133432
1033.73	0.134918
1033.87	0.13373
1034	0.137296
1034.14	0.136107
1034.27	0.130758
1034.4	0.135513
1034.54	0.132541
1034.67	0.138187
1034.81	0.134324
1034.94	0.13373
1035.07	0.131947
1035.21	0.135513
1035.34	0.133432
1035.47	0.136107
1035.61	0.13373
1035.74	0.136701
1035.88	0.140267
1036.01	0.134027
1036.14	0.139376
1036.28	0.135513
1036.41	0.132541
1036.54	0.13373
1036.68	0.135215
1036.81	0.131649
1036.95	0.139079
1037.08	0.134918
1037.21	0.139376
1037.35	0.134621
1037.48	0.132838
1037.62	0.134621
1037.75	0.13373
1037.88	0.13373
1038.02	0.132838
1038.15	0.134027
1038.28	0.131649
1038.42	0.138187
1038.55	0.134621
1038.69	0.132541
1038.82	0.136107
1038.95	0.134621
1039.09	0.132838
1039.22	0.13581
1039.35	0.134324
1039.49	0.133135
1039.62	0.136107
1039.76	0.133135
1039.89	0.139079
1040.02	0.137296
1040.16	0.137296
1040.29	0.134918
1040.43	0.138484
1040.56	0.132838
1040.69	0.136107
1040.83	0.134621
1040.96	0.131055
1041.09	0.137593
1041.23	0.136404
1041.36	0.13581
1041.5	0.134027
1041.63	0.137593
1041.76	0.132838
1041.9	0.13581
1042.03	0.136701
1042.16	0.134027
1042.3	0.131947
1042.43	0.135513
1042.57	0.13581
1042.7	0.135513
1042.83	0.135513
1042.97	0.13373
1043.1	0.134918
1043.23	0.138782
1043.37	0.134027
1043.5	0.134027
1043.64	0.131947
1043.77	0.136999
1043.9	0.13373
1044.04	0.135215
1044.17	0.132541
1044.31	0.134324
1044.44	0.134027
1044.57	0.132244
1044.71	0.133432
1044.84	0.13581
1044.97	0.136404
1045.11	0.137593
1045.24	0.137296
1045.38	0.134621
1045.51	0.132541
1045.64	0.136107
1045.78	0.131055
1045.91	0.135513
1046.04	0.135513
1046.18	0.136701
1046.31	0.132244
1046.45	0.138484
1046.58	0.131352
1046.71	0.135513
1046.85	0.136404
1046.98	0.130758
1047.11	0.134621
1047.25	0.132838
1047.38	0.134621
1047.52	0.134324
1047.65	0.132838
1047.78	0.136404
1047.92	0.136404
1048.05	0.134027
1048.18	0.133135
1048.32	0.134324
1048.45	0.128975
1048.59	0.130163
1048.72	0.134918
1048.85	0.138782
1048.99	0.136701
1049.12	0.135215
1049.25	0.136404
1049.39	0.136701
1049.52	0.135215
1049.66	0.13789
1049.79	0.13581
1049.92	0.136107
1050.06	0.132838
1050.19	0.135215
1050.33	0.132244
1050.46	0.136404
1050.59	0.133432
1050.73	0.136404
1050.86	0.135513
1050.99	0.131055
1051.13	0.134324
1051.26	0.131352
1051.4	0.134621
1051.53	0.136107
1051.66	0.13373
1051.8	0.135215
1051.93	0.135215
1052.06	0.136404
1052.2	0.134621
1052.33	0.132541
1052.47	0.134918
1052.6	0.134918
1052.73	0.132541
1052.87	0.136107
1053	0.136701
1053.13	0.132838
1053.27	0.136404
1053.4	0.134621
1053.54	0.135215
1053.67	0.137296
1053.8	0.130758
1053.94	0.135513
1054.07	0.133432
1054.2	0.13997
1054.34	0.138782
1054.47	0.132244
1054.61	0.13373
1054.74	0.13789
1054.87	0.138484
1055.01	0.130758
1055.14	0.136999
1055.27	0.135215
1055.41	0.132541
1055.54	0.134324
1055.68	0.13789
1055.81	0.134324
1055.94	0.135513
1056.08	0.137296
1056.21	0.136999
1056.34	0.130758
1056.48	0.134324
1056.61	0.132541
1056.75	0.134027
1056.88	0.137296
1057.01	0.138484
1057.15	0.137593
1057.28	0.135215
1057.41	0.137296
1057.55	0.134027
1057.68	0.139376
1057.82	0.138484
1057.95	0.135215
1058.08	0.136107
1058.22	0.138484
1058.35	0.137296
1058.48	0.131649
1058.62	0.13789
1058.75	0.133135
1058.89	0.134027
1059.02	0.136107
1059.15	0.136107
1059.29	0.128975
1059.42	0.137296
1059.55	0.135513
1059.69	0.134621
1059.82	0.136107
1059.96	0.138484
1060.09	0.13581
1060.22	0.133135
1060.36	0.135215
1060.49	0.130758
1060.62	0.135215
1060.76	0.132838
1060.89	0.134027
1061.03	0.13581
1061.16	0.137593
1061.29	0.13373
1061.43	0.136701
1061.56	0.134918
1061.69	0.136701
1061.83	0.13373
1061.96	0.134324
1062.1	0.133135
1062.23	0.131352
1062.36	0.134324
1062.5	0.128678
1062.63	0.133432
1062.76	0.134027
1062.9	0.13373
1063.03	0.134027
1063.17	0.13581
1063.3	0.131352
1063.43	0.134027
1063.57	0.13581
1063.7	0.135513
1063.83	0.135215
1063.97	0.133432
1064.1	0.134027
1064.23	0.135215
1064.37	0.138484
1064.5	0.136999
1064.64	0.133135
1064.77	0.138187
1064.9	0.130461
1065.04	0.134027
1065.17	0.133432
1065.3	0.131352
1065.44	0.134027
1065.57	0.128975
1065.71	0.135215
1065.84	0.131947
1065.97	0.138187
1066.11	0.132244
1066.24	0.135513
1066.37	0.13581
1066.51	0.134027
1066.64	0.133432
1066.78	0.136107
1066.91	0.132244
1067.04	0.131649
1067.18	0.134918
1067.31	0.137296
1067.44	0.132541
1067.58	0.13581
1067.71	0.134918
1067.85	0.133432
1067.98	0.132838
1068.11	0.138187
1068.25	0.136107
1068.38	0.136107
1068.51	0.136701
1068.65	0.136999
1068.78	0.131352
1068.92	0.133432
1069.05	0.132541
1069.18	0.134621
1069.32	0.133432
1069.45	0.135513
1069.58	0.134918
1069.72	0.135215
1069.85	0.133432
1069.98	0.136107
1070.12	0.134027
1070.25	0.134621
1070.39	0.13581
1070.52	0.133432
1070.65	0.134621
1070.79	0.13581
1070.92	0.137593
1071.05	0.136999
1071.19	0.137593
1071.32	0.13997
1071.46	0.13581
1071.59	0.134027
1071.72	0.140565
1071.86	0.136701
1071.99	0.133432
1072.12	0.13581
1072.26	0.134918
1072.39	0.132838
1072.53	0.134621
1072.66	0.136107
1072.79	0.139079
1072.93	0.131649
1073.06	0.133432
1073.19	0.135215
1073.33	0.136107
1073.46	0.136999
1073.59	0.134324
1073.73	0.133135
1073.86	0.134621
1074	0.134621
1074.13	0.131947
1074.26	0.134324
1074.4	0.136107
1074.53	0.134027
1074.66	0.136404
1074.8	0.131947
1074.93	0.137593
1075.07	0.131055
1075.2	0.13373
1075.33	0.132838
1075.47	0.133135
1075.6	0.135215
1075.73	0.134324
1075.87	0.130758
1076	0.132838
1076.14	0.136701
1076.27	0.132541
1076.4	0.136107
1076.54	0.131947
1076.67	0.134027
1076.8	0.139079
1076.94	0.134918
1077.07	0.135513
1077.2	0.131352
1077.34	0.134621
1077.47	0.134027
1077.61	0.136701
1077.74	0.132541
1077.87	0.133432
1078.01	0.131649
1078.14	0.131649
1078.27	0.131947
1078.41	0.13581
1078.54	0.134918
1078.68	0.130461
1078.81	0.137296
1078.94	0.136701
1079.08	0.138484
1079.21	0.136701
1079.34	0.134027
1079.48	0.132541
1079.61	0.136107
1079.74	0.134027
1079.88	0.135513
1080.01	0.131947
1080.15	0.134027
1080.28	0.134027
1080.41	0.134621
1080.55	0.134621
1080.68	0.13373
1080.81	0.135513
1080.95	0.137593
1081.08	0.132838
1081.22	0.138782
1081.35	0.133432
1081.48	0.136107
1081.62	0.132838
1081.75	0.135215
1081.88	0.134324
1082.02	0.13581
1082.15	0.136107
1082.28	0.136404
1082.42	0.134621
1082.55	0.137593
1082.69	0.131055
1082.82	0.134027
1082.95	0.13373
1083.09	0.135513
1083.22	0.136999
1083.35	0.136107
1083.49	0.136404
1083.62	0.140267
1083.75	0.13581
1083.89	0.13373
1084.02	0.137593
1084.16	0.131352
1084.29	0.134027
1084.42	0.134621
1084.56	0.134621
1084.69	0.136999
1084.82	0.135513
1084.96	0.13581
1085.09	0.134621
1085.23	0.138484
1085.36	0.132541
1085.49	0.135215
1085.63	0.136999
1085.76	0.134918
1085.89	0.13581
1086.03	0.13373
1086.16	0.132244
1086.29	0.132838
1086.43	0.136404
1086.56	0.134918
1086.7	0.136107
1086.83	0.13373
1086.96	0.13373
1087.1	0.134918
1087.23	0.134027
1087.36	0.139376
1087.5	0.13581
1087.63	0.137593
1087.76	0.134918
1087.9	0.137296
1088.03	0.133432
1088.17	0.136404
1088.3	0.135215
1088.43	0.138782
1088.57	0.135513
1088.7	0.135215
1088.83	0.13373
1088.97	0.134621
1089.1	0.135513
1089.24	0.134324
1089.37	0.13373
1089.5	0.134621
1089.64	0.130461
1089.77	0.134621
1089.9	0.134621
1090.04	0.136701
1090.17	0.131947
1090.3	0.135513
1090.44	0.134918
1090.57	0.136404
1090.71	0.134621
1090.84	0.131352
1090.97	0.132838
1091.11	0.133135
1091.24	0.136107
1091.37	0.13581
1091.51	0.132244
1091.64	0.137296
1091.77	0.131947
1091.91	0.138187
1092.04	0.135215
1092.18	0.13373
1092.31	0.137296
1092.44	0.135215
1092.58	0.134027
1092.71	0.133135
1092.84	0.136107
1092.98	0.139079
1093.11	0.132244
1093.24	0.131649
1093.38	0.131055
1093.51	0.137593
1093.65	0.132838
1093.78	0.131947
1093.91	0.134324
1094.05	0.138782
1094.18	0.136107
1094.31	0.136701
1094.45	0.134621
1094.58	0.134918
1094.71	0.137296
1094.85	0.13581
1094.98	0.136107
1095.12	0.134918
1095.25	0.134324
1095.38	0.136701
1095.52	0.136107
1095.65	0.134027
1095.78	0.134027
1095.92	0.130758
1096.05	0.132541
1096.18	0.133432
1096.32	0.134027
1096.45	0.133135
1096.59	0.134621
1096.72	0.137593
1096.85	0.133432
1096.99	0.136107
1097.12	0.134027
1097.25	0.133432
1097.39	0.133135
1097.52	0.13373
1097.65	0.131649
1097.79	0.136404
1097.92	0.133432
1098.06	0.132244
1098.19	0.132541
1098.32	0.131649
1098.46	0.13373
1098.59	0.134621
1098.72	0.134621
1098.86	0.133432
1098.99	0.135215
1099.12	0.132541
1099.26	0.131352
1099.39	0.134918
1099.53	0.139673
1099.66	0.132541
1099.79	0.13373
1099.93	0.134918
1100.06	0.133432
1100.19	0.134621
1100.33	0.134918
1100.46	0.134621
1100.59	0.135513
1100.73	0.13789
1100.86	0.133135
1100.99	0.136701
1101.13	0.138484
1101.26	0.131649
1101.4	0.134918
1101.53	0.138187
1101.66	0.139376
1101.8	0.134324
1101.93	0.136404
1102.06	0.134324
1102.2	0.134918
1102.33	0.134621
1102.46	0.131649
1102.6	0.12838
1102.73	0.134027
1102.87	0.135513
1103	0.134027
1103.13	0.134324
1103.27	0.134027
1103.4	0.134621
1103.53	0.138782
1103.67	0.135513
1103.8	0.135215
1103.93	0.137593
1104.07	0.139376
1104.2	0.134324
1104.34	0.134918
1104.47	0.137296
1104.6	0.136701
1104.74	0.134324
1104.87	0.13373
1105	0.134324
1105.14	0.134621
1105.27	0.141753
1105.4	0.132838
1105.54	0.138484
1105.67	0.13373
1105.8	0.135215
1105.94	0.136107
1106.07	0.138187
1106.21	0.133432
1106.34	0.136999
1106.47	0.133135
1106.61	0.136404
1106.74	0.135513
1106.87	0.135215
1107.01	0.133135
1107.14	0.134918
1107.27	0.13581
1107.41	0.133432
1107.54	0.135215

