Source: Spectrum Viewer

Chart: Pulse Spectrum

Series: 
Wavelength (nm)	S (a.u.)
617.638	0.554591
617.773	0.548387
617.908	0.538462
618.043	0.563275
618.178	0.564516
618.313	0.576923
618.448	0.549628
618.583	0.558313
618.718	0.554591
618.853	0.555831
618.988	0.562035
619.123	0.557072
619.258	0.558313
619.394	0.57072
619.529	0.57196
619.664	0.545906
619.799	0.545906
619.934	0.558313
620.069	0.566998
620.204	0.564516
620.339	0.558313
620.474	0.549628
620.609	0.558313
620.744	0.555831
620.879	0.559553
621.014	0.568238
621.149	0.542184
621.284	0.549628
621.419	0.555831
621.554	0.562035
621.689	0.562035
621.825	0.566998
621.96	0.560794
622.095	0.549628
622.23	0.584367
622.365	0.565757
622.5	0.552109
622.635	0.564516
622.77	0.55335
622.905	0.566998
623.04	0.566998
623.175	0.545906
623.31	0.554591
623.445	0.547146
623.58	0.575682
623.715	0.562035
623.85	0.57196
623.985	0.578164
624.12	0.569479
624.255	0.55335
624.39	0.560794
624.525	0.559553
624.661	0.549628
624.796	0.559553
624.931	0.560794
625.066	0.574442
625.201	0.563275
625.336	0.552109
625.471	0.579404
625.606	0.569479
625.741	0.552109
625.876	0.540943
626.011	0.542184
626.146	0.557072
626.281	0.559553
626.416	0.57072
626.551	0.55335
626.686	0.55335
626.821	0.573201
626.956	0.544665
627.091	0.560794
627.226	0.560794
627.361	0.57072
627.496	0.576923
627.631	0.563275
627.766	0.547146
627.901	0.550868
628.036	0.55335
628.171	0.562035
628.307	0.565757
628.442	0.57196
628.577	0.57072
628.712	0.558313
628.847	0.565757
628.982	0.568238
629.117	0.559553
629.252	0.57072
629.387	0.564516
629.522	0.555831
629.657	0.552109
629.792	0.576923
629.927	0.552109
630.062	0.573201
630.197	0.564516
630.332	0.55335
630.467	0.566998
630.602	0.568238
630.737	0.565757
630.872	0.548387
631.007	0.57072
631.142	0.569479
631.277	0.563275
631.412	0.563275
631.547	0.548387
631.682	0.558313
631.817	0.574442
631.952	0.563275
632.087	0.557072
632.222	0.554591
632.357	0.558313
632.492	0.57196
632.627	0.554591
632.762	0.576923
632.897	0.562035
633.032	0.562035
633.167	0.575682
633.302	0.554591
633.437	0.563275
633.572	0.533499
633.707	0.57072
633.842	0.563275
633.978	0.563275
634.113	0.565757
634.248	0.55335
634.383	0.573201
634.518	0.559553
634.653	0.563275
634.788	0.559553
634.923	0.545906
635.058	0.55335
635.193	0.560794
635.328	0.549628
635.463	0.558313
635.598	0.557072
635.733	0.560794
635.868	0.573201
636.003	0.574442
636.138	0.555831
636.273	0.559553
636.408	0.568238
636.543	0.57072
636.678	0.57072
636.813	0.57196
636.948	0.549628
637.083	0.543424
637.218	0.558313
637.353	0.555831
637.488	0.555831
637.623	0.574442
637.758	0.557072
637.893	0.564516
638.028	0.555831
638.163	0.557072
638.298	0.558313
638.433	0.573201
638.568	0.557072
638.703	0.565757
638.838	0.560794
638.973	0.559553
639.108	0.555831
639.243	0.55335
639.378	0.555831
639.513	0.560794
639.648	0.552109
639.783	0.569479
639.918	0.568238
640.053	0.57196
640.188	0.543424
640.323	0.560794
640.458	0.559553
640.593	0.55335
640.728	0.55335
640.863	0.55335
640.998	0.563275
641.133	0.55335
641.268	0.562035
641.403	0.559553
641.538	0.568238
641.673	0.562035
641.808	0.560794
641.943	0.540943
642.078	0.565757
642.213	0.566998
642.348	0.557072
642.483	0.559553
642.618	0.554591
642.753	0.554591
642.888	0.552109
643.023	0.57072
643.158	0.55335
643.293	0.564516
643.428	0.576923
643.563	0.559553
643.698	0.550868
643.833	0.583127
643.968	0.549628
644.103	0.55335
644.237	0.549628
644.372	0.57072
644.507	0.557072
644.642	0.557072
644.777	0.579404
644.912	0.565757
645.047	0.542184
645.182	0.565757
645.317	0.57196
645.452	0.573201
645.587	0.564516
645.722	0.550868
645.857	0.550868
645.992	0.559553
646.127	0.550868
646.262	0.57072
646.397	0.573201
646.532	0.568238
646.667	0.557072
646.802	0.563275
646.937	0.563275
647.072	0.539702
647.207	0.564516
647.342	0.560794
647.477	0.540943
647.612	0.559553
647.747	0.555831
647.882	0.569479
648.017	0.565757
648.152	0.564516
648.287	0.558313
648.422	0.574442
648.557	0.557072
648.692	0.554591
648.827	0.555831
648.962	0.57196
649.097	0.549628
649.232	0.562035
649.367	0.557072
649.502	0.562035
649.637	0.569479
649.772	0.563275
649.906	0.564516
650.041	0.548387
650.176	0.558313
650.311	0.559553
650.446	0.554591
650.581	0.568238
650.716	0.569479
650.851	0.574442
650.986	0.573201
651.121	0.560794
651.256	0.566998
651.391	0.554591
651.526	0.573201
651.661	0.57072
651.796	0.550868
651.931	0.584367
652.066	0.559553
652.201	0.559553
652.336	0.57072
652.471	0.573201
652.606	0.552109
652.741	0.548387
652.876	0.557072
653.011	0.565757
653.146	0.557072
653.281	0.588089
653.415	0.554591
653.55	0.547146
653.685	0.568238
653.82	0.548387
653.955	0.547146
654.09	0.569479
654.225	0.573201
654.36	0.57072
654.495	0.562035
654.63	0.574442
654.765	0.560794
654.9	0.557072
655.035	0.569479
655.17	0.549628
655.305	0.55335
655.44	0.552109
655.575	0.560794
655.71	0.57196
655.845	0.542184
655.98	0.563275
656.115	0.552109
656.25	0.576923
656.384	0.555831
656.519	0.569479
656.654	0.559553
656.789	0.569479
656.924	0.552109
657.059	0.568238
657.194	0.568238
657.329	0.562035
657.464	0.558313
657.599	0.568238
657.734	0.564516
657.869	0.568238
658.004	0.568238
658.139	0.55335
658.274	0.552109
658.409	0.566998
658.544	0.57196
658.679	0.540943
658.813	0.555831
658.948	0.579404
659.083	0.566998
659.218	0.548387
659.353	0.555831
659.488	0.573201
659.623	0.57072
659.758	0.562035
659.893	0.574442
660.028	0.562035
660.163	0.565757
660.298	0.569479
660.433	0.557072
660.568	0.552109
660.703	0.573201
660.838	0.559553
660.972	0.549628
661.107	0.57196
661.242	0.574442
661.377	0.560794
661.512	0.555831
661.647	0.549628
661.782	0.564516
661.917	0.568238
662.052	0.544665
662.187	0.550868
662.322	0.543424
662.457	0.562035
662.592	0.558313
662.727	0.565757
662.862	0.562035
662.996	0.569479
663.131	0.565757
663.266	0.57196
663.401	0.564516
663.536	0.57196
663.671	0.566998
663.806	0.569479
663.941	0.557072
664.076	0.563275
664.211	0.563275
664.346	0.566998
664.481	0.578164
664.616	0.557072
664.75	0.57072
664.885	0.557072
665.02	0.573201
665.155	0.569479
665.29	0.545906
665.425	0.554591
665.56	0.540943
665.695	0.566998
665.83	0.560794
665.965	0.55335
666.1	0.557072
666.235	0.565757
666.37	0.564516
666.504	0.550868
666.639	0.55335
666.774	0.565757
666.909	0.559553
667.044	0.55335
667.179	0.548387
667.314	0.564516
667.449	0.549628
667.584	0.574442
667.719	0.55335
667.854	0.583127
667.989	0.55335
668.123	0.588089
668.258	0.566998
668.393	0.540943
668.528	0.555831
668.663	0.57072
668.798	0.564516
668.933	0.563275
669.068	0.569479
669.203	0.562035
669.338	0.538462
669.473	0.560794
669.607	0.573201
669.742	0.573201
669.877	0.562035
670.012	0.57196
670.147	0.544665
670.282	0.569479
670.417	0.547146
670.552	0.554591
670.687	0.57196
670.822	0.565757
670.957	0.569479
671.091	0.545906
671.226	0.562035
671.361	0.544665
671.496	0.558313
671.631	0.562035
671.766	0.566998
671.901	0.574442
672.036	0.564516
672.171	0.574442
672.306	0.565757
672.44	0.548387
672.575	0.550868
672.71	0.562035
672.845	0.564516
672.98	0.57072
673.115	0.57072
673.25	0.579404
673.385	0.539702
673.52	0.562035
673.655	0.550868
673.789	0.563275
673.924	0.55335
674.059	0.573201
674.194	0.562035
674.329	0.558313
674.464	0.555831
674.599	0.555831
674.734	0.559553
674.869	0.557072
675.003	0.568238
675.138	0.565757
675.273	0.544665
675.408	0.563275
675.543	0.549628
675.678	0.578164
675.813	0.557072
675.948	0.559553
676.083	0.563275
676.217	0.542184
676.352	0.563275
676.487	0.552109
676.622	0.558313
676.757	0.559553
676.892	0.547146
677.027	0.552109
677.162	0.557072
677.297	0.558313
677.431	0.569479
677.566	0.566998
677.701	0.55335
677.836	0.550868
677.971	0.568238
678.106	0.563275
678.241	0.568238
678.376	0.550868
678.511	0.568238
678.645	0.560794
678.78	0.559553
678.915	0.554591
679.05	0.539702
679.185	0.563275
679.32	0.569479
679.455	0.548387
679.59	0.552109
679.724	0.557072
679.859	0.564516
679.994	0.552109
680.129	0.583127
680.264	0.559553
680.399	0.557072
680.534	0.565757
680.669	0.566998
680.803	0.591811
680.938	0.548387
681.073	0.540943
681.208	0.560794
681.343	0.563275
681.478	0.559553
681.613	0.564516
681.748	0.555831
681.882	0.565757
682.017	0.568238
682.152	0.566998
682.287	0.564516
682.422	0.550868
682.557	0.564516
682.692	0.554591
682.827	0.560794
682.961	0.574442
683.096	0.559553
683.231	0.55335
683.366	0.550868
683.501	0.538462
683.636	0.574442
683.771	0.57072
683.906	0.554591
684.04	0.573201
684.175	0.563275
684.31	0.55335
684.445	0.565757
684.58	0.566998
684.715	0.557072
684.85	0.57196
684.984	0.55335
685.119	0.57072
685.254	0.564516
685.389	0.562035
685.524	0.552109
685.659	0.548387
685.794	0.568238
685.928	0.569479
686.063	0.57196
686.198	0.544665
686.333	0.528536
686.468	0.554591
686.603	0.565757
686.738	0.566998
686.872	0.549628
687.007	0.545906
687.142	0.554591
687.277	0.562035
687.412	0.555831
687.547	0.558313
687.682	0.576923
687.816	0.563275
687.951	0.552109
688.086	0.565757
688.221	0.569479
688.356	0.562035
688.491	0.552109
688.626	0.583127
688.76	0.566998
688.895	0.555831
689.03	0.549628
689.165	0.57072
689.3	0.543424
689.435	0.549628
689.57	0.583127
689.704	0.548387
689.839	0.565757
689.974	0.575682
690.109	0.560794
690.244	0.569479
690.379	0.554591
690.513	0.544665
690.648	0.566998
690.783	0.560794
690.918	0.559553
691.053	0.562035
691.188	0.557072
691.323	0.568238
691.457	0.550868
691.592	0.576923
691.727	0.563275
691.862	0.57072
691.997	0.563275
692.132	0.549628
692.266	0.550868
692.401	0.560794
692.536	0.559553
692.671	0.562035
692.806	0.545906
692.941	0.559553
693.075	0.554591
693.21	0.573201
693.345	0.554591
693.48	0.563275
693.615	0.569479
693.75	0.545906
693.885	0.566998
694.019	0.578164
694.154	0.557072
694.289	0.568238
694.424	0.554591
694.559	0.557072
694.694	0.558313
694.828	0.575682
694.963	0.557072
695.098	0.557072
695.233	0.57072
695.368	0.565757
695.503	0.555831
695.637	0.564516
695.772	0.583127
695.907	0.559553
696.042	0.566998
696.177	0.558313
696.312	0.554591
696.446	0.549628
696.581	0.574442
696.716	0.562035
696.851	0.555831
696.986	0.562035
697.12	0.562035
697.255	0.563275
697.39	0.557072
697.525	0.545906
697.66	0.568238
697.795	0.575682
697.929	0.558313
698.064	0.542184
698.199	0.558313
698.334	0.558313
698.469	0.565757
698.604	0.558313
698.738	0.545906
698.873	0.548387
699.008	0.550868
699.143	0.580645
699.278	0.55335
699.412	0.574442
699.547	0.576923
699.682	0.565757
699.817	0.559553
699.952	0.573201
700.087	0.558313
700.221	0.557072
700.356	0.554591
700.491	0.568238
700.626	0.557072
700.761	0.575682
700.895	0.545906
701.03	0.559553
701.165	0.566998
701.3	0.542184
701.435	0.554591
701.57	0.584367
701.704	0.555831
701.839	0.550868
701.974	0.564516
702.109	0.566998
702.244	0.552109
702.378	0.564516
702.513	0.558313
702.648	0.574442
702.783	0.562035
702.918	0.554591
703.052	0.554591
703.187	0.559553
703.322	0.564516
703.457	0.57072
703.592	0.55335
703.727	0.568238
703.861	0.558313
703.996	0.558313
704.131	0.57196
704.266	0.557072
704.401	0.562035
704.535	0.562035
704.67	0.562035
704.805	0.583127
704.94	0.579404
705.075	0.568238
705.209	0.57072
705.344	0.558313
705.479	0.559553
705.614	0.558313
705.749	0.568238
705.883	0.565757
706.018	0.557072
706.153	0.549628
706.288	0.558313
706.423	0.563275
706.557	0.555831
706.692	0.564516
706.827	0.558313
706.962	0.558313
707.097	0.554591
707.231	0.554591
707.366	0.563275
707.501	0.57072
707.636	0.581886
707.771	0.564516
707.905	0.55335
708.04	0.559553
708.175	0.555831
708.31	0.564516
708.445	0.563275
708.579	0.557072
708.714	0.569479
708.849	0.576923
708.984	0.564516
709.118	0.559553
709.253	0.537221
709.388	0.565757
709.523	0.544665
709.658	0.578164
709.792	0.585608
709.927	0.555831
710.062	0.562035
710.197	0.55335
710.332	0.566998
710.466	0.547146
710.601	0.562035
710.736	0.581886
710.871	0.558313
711.006	0.563275
711.14	0.576923
711.275	0.559553
711.41	0.560794
711.545	0.544665
711.679	0.549628
711.814	0.578164
711.949	0.558313
712.084	0.560794
712.219	0.568238
712.353	0.559553
712.488	0.575682
712.623	0.559553
712.758	0.560794
712.892	0.554591
713.027	0.568238
713.162	0.55335
713.297	0.566998
713.432	0.563275
713.566	0.578164
713.701	0.557072
713.836	0.55335
713.971	0.559553
714.105	0.569479
714.24	0.558313
714.375	0.568238
714.51	0.540943
714.645	0.562035
714.779	0.563275
714.914	0.565757
715.049	0.552109
715.184	0.562035
715.318	0.57072
715.453	0.562035
715.588	0.565757
715.723	0.57072
715.858	0.568238
715.992	0.566998
716.127	0.555831
716.262	0.576923
716.397	0.565757
716.531	0.555831
716.666	0.563275
716.801	0.563275
716.936	0.555831
717.07	0.559553
717.205	0.542184
717.34	0.557072
717.475	0.566998
717.61	0.555831
717.744	0.574442
717.879	0.548387
718.014	0.558313
718.149	0.554591
718.283	0.542184
718.418	0.55335
718.553	0.55335
718.688	0.563275
718.822	0.562035
718.957	0.565757
719.092	0.562035
719.227	0.545906
719.361	0.557072
719.496	0.563275
719.631	0.544665
719.766	0.559553
719.9	0.580645
720.035	0.565757
720.17	0.569479
720.305	0.557072
720.44	0.544665
720.574	0.554591
720.709	0.560794
720.844	0.555831
720.979	0.549628
721.113	0.55335
721.248	0.584367
721.383	0.545906
721.518	0.576923
721.652	0.565757
721.787	0.565757
721.922	0.547146
722.057	0.57196
722.191	0.563275
722.326	0.573201
722.461	0.548387
722.596	0.575682
722.73	0.560794
722.865	0.554591
723	0.564516
723.135	0.57072
723.269	0.573201
723.404	0.574442
723.539	0.552109
723.674	0.575682
723.808	0.554591
723.943	0.564516
724.078	0.548387
724.213	0.552109
724.347	0.548387
724.482	0.573201
724.617	0.575682
724.752	0.578164
724.886	0.569479
725.021	0.580645
725.156	0.53598
725.291	0.568238
725.425	0.581886
725.56	0.579404
725.695	0.559553
725.829	0.537221
725.964	0.55335
726.099	0.568238
726.234	0.581886
726.368	0.559553
726.503	0.566998
726.638	0.560794
726.773	0.560794
726.907	0.57196
727.042	0.557072
727.177	0.560794
727.312	0.575682
727.446	0.558313
727.581	0.545906
727.716	0.560794
727.851	0.545906
727.985	0.565757
728.12	0.554591
728.255	0.552109
728.389	0.57196
728.524	0.578164
728.659	0.559553
728.794	0.558313
728.928	0.559553
729.063	0.563275
729.198	0.545906
729.333	0.559553
729.467	0.548387
729.602	0.555831
729.737	0.564516
729.872	0.575682
730.006	0.564516
730.141	0.564516
730.276	0.557072
730.41	0.542184
730.545	0.559553
730.68	0.55335
730.815	0.57072
730.949	0.540943
731.084	0.554591
731.219	0.565757
731.354	0.568238
731.488	0.569479
731.623	0.55335
731.758	0.555831
731.892	0.566998
732.027	0.550868
732.162	0.559553
732.297	0.566998
732.431	0.540943
732.566	0.550868
732.701	0.558313
732.835	0.573201
732.97	0.575682
733.105	0.558313
733.24	0.565757
733.374	0.57072
733.509	0.555831
733.644	0.57072
733.779	0.559553
733.913	0.568238
734.048	0.552109
734.183	0.563275
734.317	0.566998
734.452	0.563275
734.587	0.568238
734.722	0.559553
734.856	0.564516
734.991	0.557072
735.126	0.559553
735.26	0.563275
735.395	0.568238
735.53	0.566998
735.665	0.564516
735.799	0.559553
735.934	0.564516
736.069	0.555831
736.203	0.568238
736.338	0.575682
736.473	0.550868
736.607	0.554591
736.742	0.575682
736.877	0.557072
737.012	0.55335
737.146	0.563275
737.281	0.559553
737.416	0.549628
737.55	0.57196
737.685	0.569479
737.82	0.55335
737.955	0.555831
738.089	0.559553
738.224	0.564516
738.359	0.563275
738.493	0.55335
738.628	0.562035
738.763	0.55335
738.897	0.558313
739.032	0.550868
739.167	0.575682
739.302	0.55335
739.436	0.579404
739.571	0.563275
739.706	0.559553
739.84	0.57072
739.975	0.547146
740.11	0.558313
740.244	0.552109
740.379	0.579404
740.514	0.569479
740.649	0.555831
740.783	0.544665
740.918	0.57196
741.053	0.568238
741.187	0.555831
741.322	0.557072
741.457	0.585608
741.591	0.557072
741.726	0.57196
741.861	0.575682
741.996	0.558313
742.13	0.565757
742.265	0.547146
742.4	0.581886
742.534	0.574442
742.669	0.545906
742.804	0.569479
742.938	0.539702
743.073	0.563275
743.208	0.544665
743.342	0.555831
743.477	0.563275
743.612	0.57072
743.747	0.565757
743.881	0.548387
744.016	0.584367
744.151	0.57196
744.285	0.564516
744.42	0.547146
744.555	0.549628
744.689	0.562035
744.824	0.565757
744.959	0.539702
745.093	0.548387
745.228	0.57196
745.363	0.565757
745.497	0.548387
745.632	0.55335
745.767	0.569479
745.901	0.554591
746.036	0.549628
746.171	0.564516
746.305	0.564516
746.44	0.57196
746.575	0.554591
746.71	0.555831
746.844	0.574442
746.979	0.557072
747.114	0.547146
747.248	0.565757
747.383	0.559553
747.518	0.557072
747.652	0.563275
747.787	0.529777
747.922	0.566998
748.056	0.569479
748.191	0.578164
748.326	0.559553
748.46	0.557072
748.595	0.57196
748.73	0.554591
748.864	0.540943
748.999	0.573201
749.134	0.560794
749.268	0.565757
749.403	0.563275
749.538	0.566998
749.672	0.576923
749.807	0.557072
749.942	0.559553
750.076	0.55335
750.211	0.564516
750.346	0.569479
750.48	0.568238
750.615	0.554591
750.75	0.565757
750.884	0.552109
751.019	0.543424
751.154	0.562035
751.288	0.563275
751.423	0.557072
751.558	0.562035
751.692	0.547146
751.827	0.565757
751.962	0.564516
752.096	0.563275
752.231	0.559553
752.366	0.539702
752.5	0.543424
752.635	0.547146
752.77	0.558313
752.904	0.563275
753.039	0.549628
753.174	0.557072
753.308	0.558313
753.443	0.557072
753.578	0.558313
753.712	0.548387
753.847	0.559553
753.982	0.560794
754.116	0.559553
754.251	0.558313
754.386	0.557072
754.52	0.554591
754.655	0.565757
754.79	0.544665
754.924	0.559553
755.059	0.568238
755.194	0.564516
755.328	0.555831
755.463	0.574442
755.597	0.557072
755.732	0.563275
755.867	0.55335
756.001	0.569479
756.136	0.574442
756.271	0.543424
756.405	0.580645
756.54	0.563275
756.675	0.550868
756.809	0.575682
756.944	0.557072
757.079	0.57072
757.213	0.547146
757.348	0.550868
757.483	0.569479
757.617	0.568238
757.752	0.554591
757.887	0.564516
758.021	0.585608
758.156	0.554591
758.29	0.544665
758.425	0.574442
758.56	0.552109
758.694	0.581886
758.829	0.557072
758.964	0.563275
759.098	0.55335
759.233	0.557072
759.368	0.568238
759.502	0.554591
759.637	0.560794
759.772	0.563275
759.906	0.557072
760.041	0.564516
760.175	0.565757
760.31	0.55335
760.445	0.554591
760.579	0.559553
760.714	0.569479
760.849	0.569479
760.983	0.565757
761.118	0.554591
761.253	0.57072
761.387	0.568238
761.522	0.555831
761.656	0.555831
761.791	0.560794
761.926	0.549628
762.06	0.544665
762.195	0.555831
762.33	0.555831
762.464	0.575682
762.599	0.558313
762.733	0.558313
762.868	0.564516
763.003	0.547146
763.137	0.559553
763.272	0.554591
763.407	0.565757
763.541	0.55335
763.676	0.576923
763.811	0.576923
763.945	0.559553
764.08	0.554591
764.214	0.550868
764.349	0.55335
764.484	0.557072
764.618	0.57072
764.753	0.562035
764.888	0.57072
765.022	0.55335
765.157	0.575682
765.291	0.55335
765.426	0.564516
765.561	0.576923
765.695	0.555831
765.83	0.565757
765.965	0.57072
766.099	0.558313
766.234	0.580645
766.368	0.548387
766.503	0.569479
766.638	0.557072
766.772	0.549628
766.907	0.537221
767.041	0.53598
767.176	0.560794
767.311	0.566998
767.445	0.575682
767.58	0.57072
767.715	0.560794
767.849	0.559553
767.984	0.543424
768.118	0.568238
768.253	0.562035
768.388	0.568238
768.522	0.552109
768.657	0.57196
768.791	0.559553
768.926	0.560794
769.061	0.547146
769.195	0.558313
769.33	0.550868
769.465	0.563275
769.599	0.568238
769.734	0.543424
769.868	0.559553
770.003	0.557072
770.138	0.544665
770.272	0.573201
770.407	0.575682
770.541	0.55335
770.676	0.559553
770.811	0.581886
770.945	0.555831
771.08	0.548387
771.214	0.547146
771.349	0.563275
771.484	0.574442
771.618	0.569479
771.753	0.564516
771.887	0.562035
772.022	0.550868
772.157	0.562035
772.291	0.565757
772.426	0.565757
772.56	0.576923
772.695	0.564516
772.83	0.573201
772.964	0.55335
773.099	0.566998
773.233	0.563275
773.368	0.55335
773.503	0.558313
773.637	0.548387
773.772	0.552109
773.906	0.569479
774.041	0.543424
774.176	0.554591
774.31	0.55335
774.445	0.560794
774.579	0.560794
774.714	0.560794
774.849	0.565757
774.983	0.560794
775.118	0.554591
775.252	0.549628
775.387	0.575682
775.522	0.560794
775.656	0.55335
775.791	0.547146
775.925	0.549628
776.06	0.568238
776.195	0.564516
776.329	0.559553
776.464	0.574442
776.598	0.560794
776.733	0.545906
776.868	0.552109
777.002	0.569479
777.137	0.55335
777.271	0.562035
777.406	0.557072
777.54	0.552109
777.675	0.545906
777.81	0.555831
777.944	0.566998
778.079	0.557072
778.213	0.573201
778.348	0.549628
778.483	0.559553
778.617	0.569479
778.752	0.575682
778.886	0.545906
779.021	0.560794
779.155	0.563275
779.29	0.559553
779.425	0.569479
779.559	0.573201
779.694	0.563275
779.828	0.575682
779.963	0.559553
780.098	0.55335
780.232	0.563275
780.367	0.550868
780.501	0.557072
780.636	0.565757
780.77	0.574442
780.905	0.559553
781.04	0.57072
781.174	0.560794
781.309	0.57072
781.443	0.568238
781.578	0.550868
781.712	0.575682
781.847	0.560794
781.982	0.554591
782.116	0.55335
782.251	0.569479
782.385	0.55335
782.52	0.565757
782.654	0.560794
782.789	0.566998
782.924	0.549628
783.058	0.549628
783.193	0.545906
783.327	0.560794
783.462	0.564516
783.596	0.560794
783.731	0.560794
783.866	0.558313
784	0.568238
784.135	0.578164
784.269	0.539702
784.404	0.575682
784.538	0.57196
784.673	0.555831
784.808	0.573201
784.942	0.568238
785.077	0.568238
785.211	0.573201
785.346	0.557072
785.48	0.540943
785.615	0.548387
785.75	0.554591
785.884	0.558313
786.019	0.55335
786.153	0.57196
786.288	0.562035
786.422	0.57072
786.557	0.555831
786.691	0.568238
786.826	0.554591
786.961	0.554591
787.095	0.563275
787.23	0.566998
787.364	0.581886
787.499	0.557072
787.633	0.574442
787.768	0.55335
787.902	0.555831
788.037	0.55335
788.172	0.557072
788.306	0.550868
788.441	0.558313
788.575	0.558313
788.71	0.57072
788.844	0.550868
788.979	0.562035
789.113	0.554591
789.248	0.562035
789.383	0.564516
789.517	0.548387
789.652	0.554591
789.786	0.558313
789.921	0.57196
790.055	0.552109
790.19	0.583127
790.324	0.550868
790.459	0.557072
790.594	0.55335
790.728	0.57072
790.863	0.565757
790.997	0.555831
791.132	0.547146
791.266	0.555831
791.401	0.578164
791.535	0.566998
791.67	0.552109
791.804	0.564516
791.939	0.555831
792.074	0.554591
792.208	0.574442
792.343	0.564516
792.477	0.560794
792.612	0.564516
792.746	0.55335
792.881	0.574442
793.015	0.563275
793.15	0.557072
793.284	0.560794
793.419	0.558313
793.553	0.545906
793.688	0.563275
793.823	0.555831
793.957	0.554591
794.092	0.557072
794.226	0.558313
794.361	0.57196
794.495	0.554591
794.63	0.574442
794.764	0.569479
794.899	0.55335
795.033	0.558313
795.168	0.552109
795.302	0.573201
795.437	0.568238
795.572	0.568238
795.706	0.57196
795.841	0.559553
795.975	0.547146
796.11	0.557072
796.244	0.545906
796.379	0.558313
796.513	0.559553
796.648	0.575682
796.782	0.565757
796.917	0.554591
797.051	0.573201
797.186	0.550868
797.32	0.568238
797.455	0.579404
797.589	0.562035
797.724	0.526055
797.859	0.555831
797.993	0.548387
798.128	0.566998
798.262	0.540943
798.397	0.555831
798.531	0.574442
798.666	0.550868
798.8	0.576923
798.935	0.544665
799.069	0.558313
799.204	0.544665
799.338	0.57196
799.473	0.557072
799.607	0.563275
799.742	0.554591
799.876	0.558313
800.011	0.566998
800.145	0.558313
800.28	0.558313
800.414	0.558313
800.549	0.566998
800.683	0.563275
800.818	0.568238
800.953	0.578164
801.087	0.573201
801.222	0.552109
801.356	0.548387
801.491	0.543424
801.625	0.563275
801.76	0.557072
801.894	0.555831
802.029	0.559553
802.163	0.555831
802.298	0.554591
802.432	0.550868
802.567	0.562035
802.701	0.57196
802.836	0.565757
802.97	0.563275
803.105	0.554591
803.239	0.550868
803.374	0.555831
803.508	0.558313
803.643	0.576923
803.777	0.579404
803.912	0.545906
804.046	0.565757
804.181	0.563275
804.315	0.573201
804.45	0.584367
804.584	0.559553
804.719	0.562035
804.853	0.560794
804.988	0.58933
805.122	0.554591
805.257	0.563275
805.391	0.549628
805.526	0.560794
805.66	0.549628
805.795	0.575682
805.929	0.559553
806.064	0.558313
806.198	0.550868
806.333	0.575682
806.467	0.566998
806.602	0.565757
806.736	0.576923
806.871	0.568238
807.005	0.576923
807.14	0.564516
807.274	0.576923
807.409	0.574442
807.543	0.55335
807.678	0.559553
807.812	0.57196
807.947	0.554591
808.081	0.552109
808.216	0.566998
808.35	0.555831
808.485	0.565757
808.619	0.566998
808.754	0.548387
808.888	0.566998
809.023	0.569479
809.157	0.563275
809.292	0.573201
809.426	0.549628
809.561	0.569479
809.695	0.560794
809.83	0.557072
809.964	0.564516
810.099	0.554591
810.233	0.563275
810.368	0.562035
810.502	0.557072
810.637	0.566998
810.771	0.583127
810.906	0.581886
811.04	0.573201
811.175	0.579404
811.309	0.575682
811.444	0.578164
811.578	0.598015
811.713	0.633995
811.847	0.650124
811.982	0.717122
812.116	0.971464
812.251	1
812.385	0.75062
812.519	0.596774
812.654	0.559553
812.788	0.55335
812.923	0.554591
813.057	0.575682
813.192	0.55335
813.326	0.568238
813.461	0.573201
813.595	0.557072
813.73	0.586849
813.864	0.560794
813.999	0.579404
814.133	0.562035
814.268	0.57196
814.402	0.562035
814.537	0.562035
814.671	0.560794
814.806	0.552109
814.94	0.55335
815.075	0.578164
815.209	0.563275
815.344	0.568238
815.478	0.568238
815.612	0.563275
815.747	0.568238
815.881	0.545906
816.016	0.563275
816.15	0.543424
816.285	0.568238
816.419	0.564516
816.554	0.563275
816.688	0.545906
816.823	0.559553
816.957	0.563275
817.092	0.573201
817.226	0.549628
817.361	0.548387
817.495	0.568238
817.63	0.555831
817.764	0.564516
817.898	0.580645
818.033	0.547146
818.167	0.58933
818.302	0.562035
818.436	0.557072
818.571	0.55335
818.705	0.573201
818.84	0.564516
818.974	0.557072
819.109	0.57196
819.243	0.563275
819.378	0.566998
819.512	0.559553
819.646	0.565757
819.781	0.563275
819.915	0.549628
820.05	0.569479
820.184	0.545906
820.319	0.586849
820.453	0.569479
820.588	0.554591
820.722	0.557072
820.857	0.563275
820.991	0.578164
821.126	0.554591
821.26	0.55335
821.394	0.566998
821.529	0.534739
821.663	0.555831
821.798	0.565757
821.932	0.560794
822.067	0.557072
822.201	0.547146
822.336	0.581886
822.47	0.550868
822.605	0.548387
822.739	0.563275
822.873	0.558313
823.008	0.576923
823.142	0.566998
823.277	0.573201
823.411	0.547146
823.546	0.57072
823.68	0.543424
823.815	0.575682
823.949	0.562035
824.083	0.568238
824.218	0.580645
824.352	0.554591
824.487	0.559553
824.621	0.555831
824.756	0.578164
824.89	0.563275
825.025	0.569479
825.159	0.57196
825.293	0.544665
825.428	0.568238
825.562	0.55335
825.697	0.563275
825.831	0.562035
825.966	0.568238
826.1	0.563275
826.235	0.568238
826.369	0.543424
826.503	0.555831
826.638	0.557072
826.772	0.559553
826.907	0.565757
827.041	0.559553
827.176	0.562035
827.31	0.564516
827.445	0.559553
827.579	0.554591
827.713	0.562035
827.848	0.557072
827.982	0.575682
828.117	0.558313
828.251	0.562035
828.386	0.566998
828.52	0.566998
828.654	0.569479
828.789	0.578164
828.923	0.534739
829.058	0.564516
829.192	0.559553
829.327	0.573201
829.461	0.557072
829.596	0.558313
829.73	0.563275
829.864	0.563275
829.999	0.545906
830.133	0.57196
830.268	0.55335
830.402	0.562035
830.537	0.560794
830.671	0.569479
830.805	0.566998
830.94	0.569479
831.074	0.555831
831.209	0.548387
831.343	0.57072
831.478	0.552109
831.612	0.557072
831.746	0.543424
831.881	0.534739
832.015	0.574442
832.15	0.578164
832.284	0.586849
832.418	0.568238
832.553	0.57072
832.687	0.563275
832.822	0.568238
832.956	0.579404
833.091	0.558313
833.225	0.562035
833.359	0.548387
833.494	0.549628
833.628	0.565757
833.763	0.564516
833.897	0.564516
834.032	0.564516
834.166	0.557072
834.3	0.565757
834.435	0.566998
834.569	0.560794
834.704	0.548387
834.838	0.588089
834.972	0.559553
835.107	0.569479
835.241	0.569479
835.376	0.554591
835.51	0.565757
835.645	0.565757
835.779	0.560794
835.913	0.560794
836.048	0.547146
836.182	0.562035
836.317	0.562035
836.451	0.564516
836.585	0.550868
836.72	0.560794
836.854	0.562035
836.989	0.544665
837.123	0.566998
837.257	0.566998
837.392	0.549628
837.526	0.564516
837.661	0.547146
837.795	0.554591
837.929	0.568238
838.064	0.550868
838.198	0.558313
838.333	0.564516
838.467	0.569479
838.602	0.563275
838.736	0.562035
838.87	0.555831
839.005	0.545906
839.139	0.568238
839.274	0.550868
839.408	0.565757
839.542	0.555831
839.677	0.552109
839.811	0.549628
839.946	0.569479
840.08	0.552109
840.214	0.563275
840.349	0.568238
840.483	0.560794
840.618	0.558313
840.752	0.563275
840.886	0.562035
841.021	0.564516
841.155	0.552109
841.29	0.581886
841.424	0.57196
841.558	0.576923
841.693	0.557072
841.827	0.57072
841.961	0.584367
842.096	0.566998
842.23	0.562035
842.365	0.558313
842.499	0.559553
842.633	0.560794
842.768	0.555831
842.902	0.559553
843.037	0.558313
843.171	0.55335
843.305	0.562035
843.44	0.564516
843.574	0.562035
843.709	0.555831
843.843	0.57072
843.977	0.559553
844.112	0.573201
844.246	0.566998
844.381	0.57072
844.515	0.564516
844.649	0.563275
844.784	0.53598
844.918	0.575682
845.052	0.565757
845.187	0.559553
845.321	0.563275
845.456	0.573201
845.59	0.563275
845.724	0.563275
845.859	0.552109
845.993	0.554591
846.128	0.57072
846.262	0.583127
846.396	0.550868
846.531	0.55335
846.665	0.554591
846.799	0.563275
846.934	0.558313
847.068	0.564516
847.203	0.562035
847.337	0.579404
847.471	0.555831
847.606	0.564516
847.74	0.563275
847.874	0.563275
848.009	0.578164
848.143	0.566998
848.278	0.57072
848.412	0.574442
848.546	0.555831
848.681	0.574442
848.815	0.562035
848.949	0.579404
849.084	0.554591
849.218	0.565757
849.353	0.573201
849.487	0.558313
849.621	0.560794
849.756	0.569479
849.89	0.552109
850.024	0.580645
850.159	0.57072
850.293	0.568238
850.428	0.55335
850.562	0.562035
850.696	0.566998
850.831	0.559553
850.965	0.55335
851.099	0.565757
851.234	0.564516
851.368	0.568238
851.502	0.552109
851.637	0.568238
851.771	0.547146
851.906	0.57072
852.04	0.574442
852.174	0.547146
852.309	0.550868
852.443	0.574442
852.577	0.573201
852.712	0.554591
852.846	0.573201
852.98	0.555831
853.115	0.55335
853.249	0.539702
853.384	0.559553
853.518	0.569479
853.652	0.563275
853.787	0.562035
853.921	0.548387
854.055	0.57072
854.19	0.574442
854.324	0.564516
854.458	0.558313
854.593	0.55335
854.727	0.564516
854.861	0.555831
854.996	0.562035
855.13	0.573201
855.265	0.550868
855.399	0.563275
855.533	0.545906
855.668	0.554591
855.802	0.55335
855.936	0.558313
856.071	0.555831
856.205	0.55335
856.339	0.549628
856.474	0.568238
856.608	0.557072
856.742	0.580645
856.877	0.559553
857.011	0.559553
857.145	0.534739
857.28	0.566998
857.414	0.563275
857.549	0.560794
857.683	0.558313
857.817	0.549628
857.952	0.573201
858.086	0.562035
858.22	0.562035
858.355	0.568238
858.489	0.575682
858.623	0.540943
858.758	0.563275
858.892	0.540943
859.026	0.55335
859.161	0.544665
859.295	0.57072
859.429	0.554591
859.564	0.555831
859.698	0.531017
859.832	0.565757
859.967	0.557072
860.101	0.57196
860.235	0.544665
860.37	0.573201
860.504	0.552109
860.638	0.569479
860.773	0.560794
860.907	0.575682
861.041	0.562035
861.176	0.565757
861.31	0.560794
861.444	0.566998
861.579	0.568238
861.713	0.566998
861.847	0.573201
861.982	0.552109
862.116	0.57072
862.25	0.564516
862.385	0.569479
862.519	0.568238
862.653	0.558313
862.788	0.568238
862.922	0.562035
863.056	0.55335
863.191	0.547146
863.325	0.558313
863.459	0.557072
863.594	0.555831
863.728	0.563275
863.862	0.549628
863.997	0.585608
864.131	0.564516
864.265	0.547146
864.4	0.566998
864.534	0.564516
864.668	0.562035
864.803	0.557072
864.937	0.545906
865.071	0.555831
865.206	0.568238
865.34	0.562035
865.474	0.57196
865.609	0.558313
865.743	0.560794
865.877	0.550868
866.012	0.55335
866.146	0.554591
866.28	0.548387
866.415	0.55335
866.549	0.552109
866.683	0.552109
866.818	0.564516
866.952	0.548387
867.086	0.588089
867.221	0.566998
867.355	0.558313
867.489	0.539702
867.623	0.563275
867.758	0.574442
867.892	0.55335
868.026	0.564516
868.161	0.568238
868.295	0.557072
868.429	0.549628
868.564	0.55335
868.698	0.565757
868.832	0.57196
868.967	0.55335
869.101	0.557072
869.235	0.547146
869.37	0.563275
869.504	0.569479
869.638	0.568238
869.773	0.543424
869.907	0.581886
870.041	0.578164
870.175	0.57196
870.31	0.565757
870.444	0.569479
870.578	0.560794
870.713	0.547146
870.847	0.57072
870.981	0.578164
871.116	0.554591
871.25	0.57072
871.384	0.563275
871.519	0.569479
871.653	0.575682
871.787	0.565757
871.921	0.573201
872.056	0.559553
872.19	0.557072
872.324	0.564516
872.459	0.564516
872.593	0.550868
872.727	0.564516
872.862	0.560794
872.996	0.554591
873.13	0.55335
873.264	0.578164
873.399	0.555831
873.533	0.550868
873.667	0.568238
873.802	0.566998
873.936	0.562035
874.07	0.573201
874.205	0.552109
874.339	0.565757
874.473	0.559553
874.607	0.555831
874.742	0.568238
874.876	0.569479
875.01	0.555831
875.145	0.573201
875.279	0.564516
875.413	0.557072
875.548	0.57072
875.682	0.568238
875.816	0.57196
875.95	0.550868
876.085	0.545906
876.219	0.560794
876.353	0.560794
876.488	0.559553
876.622	0.559553
876.756	0.575682
876.89	0.552109
877.025	0.564516
877.159	0.544665
877.293	0.57072
877.428	0.575682
877.562	0.575682
877.696	0.559553
877.83	0.555831
877.965	0.568238
878.099	0.55335
878.233	0.547146
878.368	0.579404
878.502	0.563275
878.636	0.568238
878.77	0.554591
878.905	0.569479
879.039	0.559553
879.173	0.555831
879.308	0.554591
879.442	0.569479
879.576	0.578164
879.71	0.55335
879.845	0.559553
879.979	0.57196
880.113	0.547146
880.248	0.557072
880.382	0.569479
880.516	0.564516
880.65	0.555831
880.785	0.574442
880.919	0.55335
881.053	0.564516
881.188	0.552109
881.322	0.559553
881.456	0.57072
881.59	0.560794
881.725	0.559553
881.859	0.568238
881.993	0.543424
882.127	0.565757
882.262	0.550868
882.396	0.565757
882.53	0.568238
882.665	0.557072
882.799	0.584367
882.933	0.574442
883.067	0.569479
883.202	0.558313
883.336	0.550868
883.47	0.568238
883.604	0.57196
883.739	0.559553
883.873	0.555831
884.007	0.560794
884.142	0.565757
884.276	0.562035
884.41	0.562035
884.544	0.565757
884.679	0.562035
884.813	0.555831
884.947	0.57072
885.081	0.542184
885.216	0.554591
885.35	0.57196
885.484	0.565757
885.618	0.573201
885.753	0.562035
885.887	0.554591
886.021	0.565757
886.155	0.565757
886.29	0.562035
886.424	0.576923
886.558	0.57072
886.693	0.554591
886.827	0.554591
886.961	0.579404
887.095	0.563275
887.23	0.548387
887.364	0.57072
887.498	0.573201
887.632	0.557072
887.767	0.560794
887.901	0.554591
888.035	0.568238
888.169	0.552109
888.304	0.57196
888.438	0.545906
888.572	0.562035
888.706	0.558313
888.841	0.557072
888.975	0.559553
889.109	0.560794
889.243	0.550868
889.378	0.538462
889.512	0.558313
889.646	0.57196
889.78	0.547146
889.915	0.563275
890.049	0.57072
890.183	0.539702
890.317	0.557072
890.452	0.574442
890.586	0.555831
890.72	0.562035
890.854	0.566998
890.989	0.581886
891.123	0.581886
891.257	0.568238
891.391	0.557072
891.526	0.580645
891.66	0.543424
891.794	0.564516
891.928	0.563275
892.063	0.57072
892.197	0.574442
892.331	0.559553
892.465	0.563275
892.6	0.548387
892.734	0.562035
892.868	0.563275
893.002	0.563275
893.137	0.563275
893.271	0.564516
893.405	0.57072
893.539	0.549628
893.674	0.565757
893.808	0.57196
893.942	0.566998
894.076	0.559553
894.21	0.562035
894.345	0.543424
894.479	0.552109
894.613	0.552109
894.747	0.574442
894.882	0.562035
895.016	0.554591
895.15	0.562035
895.284	0.550868
895.419	0.557072
895.553	0.563275
895.687	0.545906
895.821	0.565757
895.956	0.540943
896.09	0.57196
896.224	0.566998
896.358	0.557072
896.492	0.563275
896.627	0.560794
896.761	0.568238
896.895	0.560794
897.029	0.564516
897.164	0.574442
897.298	0.55335
897.432	0.564516
897.566	0.55335
897.701	0.549628
897.835	0.574442
897.969	0.549628
898.103	0.559553
898.237	0.560794
898.372	0.55335
898.506	0.554591
898.64	0.585608
898.774	0.569479
898.909	0.579404
899.043	0.563275
899.177	0.554591
899.311	0.566998
899.445	0.563275
899.58	0.559553
899.714	0.557072
899.848	0.557072
899.982	0.552109
900.117	0.564516
900.251	0.565757
900.385	0.573201
900.519	0.574442
900.653	0.547146
900.788	0.543424
900.922	0.559553
901.056	0.564516
901.19	0.568238
901.325	0.544665
901.459	0.575682
901.593	0.576923
901.727	0.57072
901.861	0.554591
901.996	0.545906
902.13	0.549628
902.264	0.557072
902.398	0.558313
902.532	0.569479
902.667	0.580645
902.801	0.574442
902.935	0.568238
903.069	0.558313
903.204	0.568238
903.338	0.575682
903.472	0.583127
903.606	0.560794
903.74	0.555831
903.875	0.555831
904.009	0.560794
904.143	0.564516
904.277	0.555831
904.411	0.557072
904.546	0.564516
904.68	0.576923
904.814	0.539702
904.948	0.558313
905.082	0.560794
905.217	0.544665
905.351	0.57072
905.485	0.564516
905.619	0.575682
905.753	0.568238
905.888	0.566998
906.022	0.565757
906.156	0.547146
906.29	0.566998
906.424	0.57196
906.559	0.559553
906.693	0.562035
906.827	0.557072
906.961	0.542184
907.095	0.552109
907.23	0.549628
907.364	0.568238
907.498	0.558313
907.632	0.562035
907.766	0.579404
907.901	0.559553
908.035	0.574442
908.169	0.560794
908.303	0.557072
908.437	0.574442
908.572	0.569479
908.706	0.559553
908.84	0.543424
908.974	0.564516
909.108	0.555831
909.243	0.557072
909.377	0.566998
909.511	0.558313
909.645	0.569479
909.779	0.555831
909.914	0.563275
910.048	0.560794
910.182	0.547146
910.316	0.542184
910.45	0.566998
910.585	0.573201
910.719	0.564516
910.853	0.57072
910.987	0.540943
911.121	0.562035
911.255	0.555831
911.39	0.568238
911.524	0.563275
911.658	0.547146
911.792	0.565757
911.926	0.558313
912.061	0.565757
912.195	0.559553
912.329	0.549628
912.463	0.563275
912.597	0.560794
912.732	0.565757
912.866	0.563275
913	0.575682
913.134	0.562035
913.268	0.559553
913.402	0.548387
913.537	0.575682
913.671	0.554591
913.805	0.57072
913.939	0.576923
914.073	0.578164
914.208	0.565757
914.342	0.562035
914.476	0.583127
914.61	0.562035
914.744	0.559553
914.878	0.566998
915.013	0.545906
915.147	0.57196
915.281	0.575682
915.415	0.545906
915.549	0.564516
915.683	0.549628
915.818	0.565757
915.952	0.563275
916.086	0.558313
916.22	0.559553
916.354	0.559553
916.488	0.566998
916.623	0.554591
916.757	0.566998
916.891	0.575682
917.025	0.563275
917.159	0.565757
917.293	0.558313
917.428	0.564516
917.562	0.557072
917.696	0.576923
917.83	0.568238
917.964	0.57072
918.098	0.57072
918.233	0.558313
918.367	0.565757
918.501	0.543424
918.635	0.559553
918.769	0.566998
918.903	0.557072
919.038	0.549628
919.172	0.566998
919.306	0.559553
919.44	0.57072
919.574	0.559553
919.708	0.549628
919.843	0.565757
919.977	0.578164
920.111	0.552109
920.245	0.573201
920.379	0.559553
920.513	0.557072
920.648	0.568238
920.782	0.554591
920.916	0.548387
921.05	0.568238
921.184	0.565757
921.318	0.559553
921.453	0.574442
921.587	0.563275
921.721	0.566998
921.855	0.568238
921.989	0.57196
922.123	0.565757
922.257	0.568238
922.392	0.562035
922.526	0.558313
922.66	0.563275
922.794	0.559553
922.928	0.574442
923.062	0.562035
923.197	0.550868
923.331	0.563275
923.465	0.555831
923.599	0.549628
923.733	0.566998
923.867	0.564516
924.001	0.580645
924.136	0.550868
924.27	0.564516
924.404	0.55335
924.538	0.574442
924.672	0.549628
924.806	0.547146
924.94	0.557072
925.075	0.563275
925.209	0.563275
925.343	0.554591
925.477	0.534739
925.611	0.579404
925.745	0.558313
925.879	0.569479
926.014	0.554591
926.148	0.565757
926.282	0.569479
926.416	0.547146
926.55	0.562035
926.684	0.554591
926.818	0.581886
926.953	0.562035
927.087	0.548387
927.221	0.562035
927.355	0.562035
927.489	0.554591
927.623	0.573201
927.757	0.568238
927.892	0.555831
928.026	0.55335
928.16	0.560794
928.294	0.559553
928.428	0.565757
928.562	0.563275
928.696	0.565757
928.831	0.559553
928.965	0.559553
929.099	0.565757
929.233	0.558313
929.367	0.566998
929.501	0.574442
929.635	0.55335
929.769	0.554591
929.904	0.569479
930.038	0.562035
930.172	0.564516
930.306	0.554591
930.44	0.547146
930.574	0.555831
930.708	0.568238
930.843	0.57072
930.977	0.568238
931.111	0.565757
931.245	0.545906
931.379	0.545906
931.513	0.578164
931.647	0.562035
931.781	0.554591
931.916	0.552109
932.05	0.568238
932.184	0.563275
932.318	0.554591
932.452	0.559553
932.586	0.565757
932.72	0.566998
932.854	0.569479
932.989	0.557072
933.123	0.555831
933.257	0.564516
933.391	0.575682
933.525	0.557072
933.659	0.557072
933.793	0.57072
933.927	0.563275
934.061	0.574442
934.196	0.563275
934.33	0.549628
934.464	0.564516
934.598	0.57196
934.732	0.557072
934.866	0.557072
935	0.57072
935.134	0.564516
935.269	0.559553
935.403	0.562035
935.537	0.540943
935.671	0.555831
935.805	0.558313
935.939	0.550868
936.073	0.549628
936.207	0.568238
936.341	0.578164
936.476	0.564516
936.61	0.565757
936.744	0.555831
936.878	0.558313
937.012	0.563275
937.146	0.573201
937.28	0.574442
937.414	0.559553
937.548	0.562035
937.683	0.543424
937.817	0.576923
937.951	0.576923
938.085	0.566998
938.219	0.552109
938.353	0.555831
938.487	0.550868
938.621	0.579404
938.755	0.568238
938.889	0.559553
939.024	0.568238
939.158	0.548387
939.292	0.552109
939.426	0.578164
939.56	0.545906
939.694	0.573201
939.828	0.575682
939.962	0.555831
940.096	0.559553
940.231	0.565757
940.365	0.559553
940.499	0.544665
940.633	0.578164
940.767	0.573201
940.901	0.581886
941.035	0.560794
941.169	0.57196
941.303	0.563275
941.437	0.559553
941.571	0.584367
941.706	0.566998
941.84	0.547146
941.974	0.557072
942.108	0.565757
942.242	0.558313
942.376	0.574442
942.51	0.549628
942.644	0.558313
942.778	0.548387
942.912	0.555831
943.047	0.538462
943.181	0.566998
943.315	0.540943
943.449	0.565757
943.583	0.568238
943.717	0.544665
943.851	0.547146
943.985	0.555831
944.119	0.565757
944.253	0.558313
944.387	0.575682
944.522	0.559553
944.656	0.559553
944.79	0.569479
944.924	0.550868
945.058	0.563275
945.192	0.554591
945.326	0.562035
945.46	0.548387
945.594	0.569479
945.728	0.575682
945.862	0.565757
945.996	0.543424
946.131	0.540943
946.265	0.559553
946.399	0.562035
946.533	0.55335
946.667	0.576923
946.801	0.555831
946.935	0.549628
947.069	0.563275
947.203	0.552109
947.337	0.554591
947.471	0.554591
947.605	0.542184
947.739	0.557072
947.874	0.568238
948.008	0.557072
948.142	0.55335
948.276	0.550868
948.41	0.560794
948.544	0.563275
948.678	0.549628
948.812	0.57072
948.946	0.560794
949.08	0.555831
949.214	0.550868
949.348	0.555831
949.482	0.560794
949.617	0.557072
949.751	0.563275
949.885	0.557072
950.019	0.560794
950.153	0.569479
950.287	0.560794
950.421	0.552109
950.555	0.554591
950.689	0.557072
950.823	0.55335
950.957	0.554591
951.091	0.562035
951.225	0.560794
951.359	0.555831
951.493	0.555831
951.628	0.565757
951.762	0.562035
951.896	0.57196
952.03	0.566998
952.164	0.565757
952.298	0.555831
952.432	0.559553
952.566	0.55335
952.7	0.554591
952.834	0.559553
952.968	0.563275
953.102	0.568238
953.236	0.543424
953.37	0.564516
953.504	0.564516
953.639	0.559553
953.773	0.557072
953.907	0.565757
954.041	0.57196
954.175	0.558313
954.309	0.549628
954.443	0.548387
954.577	0.555831
954.711	0.57196
954.845	0.568238
954.979	0.565757
955.113	0.562035
955.247	0.564516
955.381	0.558313
955.515	0.549628
955.649	0.548387
955.783	0.573201
955.917	0.57072
956.052	0.552109
956.186	0.564516
956.32	0.568238
956.454	0.560794
956.588	0.55335
956.722	0.565757
956.856	0.566998
956.99	0.557072
957.124	0.568238
957.258	0.554591
957.392	0.563275
957.526	0.560794
957.66	0.560794
957.794	0.575682
957.928	0.57072
958.062	0.564516
958.196	0.55335
958.33	0.560794
958.464	0.563275
958.598	0.579404
958.733	0.574442
958.867	0.565757
959.001	0.549628
959.135	0.550868
959.269	0.557072
959.403	0.564516
959.537	0.574442
959.671	0.569479
959.805	0.55335
959.939	0.565757
960.073	0.583127
960.207	0.558313
960.341	0.555831
960.475	0.552109
960.609	0.559553
960.743	0.557072
960.877	0.562035
961.011	0.547146
961.145	0.568238
961.279	0.569479
961.413	0.547146
961.547	0.568238
961.681	0.552109
961.815	0.560794
961.949	0.594293
962.083	0.552109
962.218	0.565757
962.352	0.55335
962.486	0.547146
962.62	0.55335
962.754	0.554591
962.888	0.55335
963.022	0.563275
963.156	0.574442
963.29	0.55335
963.424	0.539702
963.558	0.557072
963.692	0.562035
963.826	0.558313
963.96	0.574442
964.094	0.557072
964.228	0.57072
964.362	0.565757
964.496	0.550868
964.63	0.543424
964.764	0.548387
964.898	0.560794
965.032	0.562035
965.166	0.565757
965.3	0.548387
965.434	0.562035
965.568	0.565757
965.702	0.560794
965.836	0.542184
965.97	0.543424
966.104	0.579404
966.238	0.559553
966.372	0.564516
966.506	0.57072
966.64	0.560794
966.774	0.568238
966.908	0.57072
967.043	0.563275
967.177	0.562035
967.311	0.581886
967.445	0.558313
967.579	0.550868
967.713	0.574442
967.847	0.563275
967.981	0.555831
968.115	0.564516
968.249	0.562035
968.383	0.557072
968.517	0.574442
968.651	0.580645
968.785	0.558313
968.919	0.560794
969.053	0.548387
969.187	0.549628
969.321	0.563275
969.455	0.555831
969.589	0.57072
969.723	0.555831
969.857	0.558313
969.991	0.549628
970.125	0.55335
970.259	0.552109
970.393	0.581886
970.527	0.57072
970.661	0.552109
970.795	0.564516
970.929	0.559553
971.063	0.566998
971.197	0.564516
971.331	0.55335
971.465	0.542184
971.599	0.560794
971.733	0.563275
971.867	0.559553
972.001	0.57072
972.135	0.565757
972.269	0.57072
972.403	0.547146
972.537	0.564516
972.671	0.557072
972.805	0.547146
972.939	0.562035
973.073	0.560794
973.207	0.540943
973.341	0.559553
973.475	0.557072
973.609	0.560794
973.743	0.566998
973.877	0.560794
974.011	0.557072
974.145	0.544665
974.279	0.55335
974.413	0.578164
974.547	0.554591
974.681	0.568238
974.815	0.555831
974.949	0.569479
975.083	0.55335
975.217	0.565757
975.351	0.569479
975.485	0.560794
975.619	0.557072
975.753	0.560794
975.887	0.564516
976.021	0.555831
976.155	0.55335
976.289	0.569479
976.423	0.563275
976.557	0.569479
976.691	0.55335
976.825	0.563275
976.959	0.539702
977.093	0.57196
977.227	0.545906
977.361	0.566998
977.495	0.57072
977.629	0.573201
977.763	0.578164
977.897	0.563275
978.031	0.564516
978.165	0.560794
978.299	0.558313
978.433	0.565757
978.567	0.575682
978.701	0.562035
978.835	0.580645
978.969	0.576923
979.103	0.564516
979.237	0.55335
979.371	0.554591
979.505	0.563275
979.639	0.552109
979.773	0.547146
979.907	0.557072
980.041	0.57196
980.175	0.550868
980.308	0.555831
980.442	0.557072
980.576	0.554591
980.71	0.564516
980.844	0.583127
980.978	0.547146
981.112	0.558313
981.246	0.559553
981.38	0.563275
981.514	0.563275
981.648	0.550868
981.782	0.554591
981.916	0.563275
982.05	0.562035
982.184	0.57196
982.318	0.554591
982.452	0.566998
982.586	0.564516
982.72	0.581886
982.854	0.574442
982.988	0.555831
983.122	0.552109
983.256	0.564516
983.39	0.547146
983.524	0.566998
983.658	0.57072
983.792	0.560794
983.926	0.574442
984.06	0.57072
984.194	0.563275
984.328	0.574442
984.462	0.555831
984.596	0.574442
984.73	0.55335
984.864	0.565757
984.998	0.57072
985.132	0.55335
985.265	0.562035
985.399	0.543424
985.533	0.564516
985.667	0.563275
985.801	0.573201
985.935	0.555831
986.069	0.568238
986.203	0.57072
986.337	0.57072
986.471	0.549628
986.605	0.558313
986.739	0.565757
986.873	0.540943
987.007	0.559553
987.141	0.557072
987.275	0.560794
987.409	0.560794
987.543	0.576923
987.677	0.558313
987.811	0.566998
987.945	0.568238
988.079	0.554591
988.213	0.555831
988.347	0.569479
988.481	0.565757
988.614	0.559553
988.748	0.564516
988.882	0.557072
989.016	0.559553
989.15	0.563275
989.284	0.557072
989.418	0.564516
989.552	0.57196
989.686	0.562035
989.82	0.550868
989.954	0.574442
990.088	0.55335
990.222	0.554591
990.356	0.557072
990.49	0.574442
990.624	0.583127
990.758	0.574442
990.892	0.562035
991.026	0.581886
991.16	0.569479
991.294	0.574442
991.427	0.566998
991.561	0.550868
991.695	0.564516
991.829	0.573201
991.963	0.563275
992.097	0.576923
992.231	0.568238
992.365	0.565757
992.499	0.555831
992.633	0.550868
992.767	0.564516
992.901	0.558313
993.035	0.538462
993.169	0.563275
993.303	0.566998
993.437	0.583127
993.571	0.55335
993.704	0.57196
993.838	0.569479
993.972	0.554591
994.106	0.563275
994.24	0.564516
994.374	0.555831
994.508	0.563275
994.642	0.548387
994.776	0.552109
994.91	0.555831
995.044	0.566998
995.178	0.552109
995.312	0.566998
995.446	0.565757
995.58	0.554591
995.714	0.552109
995.847	0.55335
995.981	0.544665
996.115	0.558313
996.249	0.568238
996.383	0.559553
996.517	0.560794
996.651	0.564516
996.785	0.559553
996.919	0.569479
997.053	0.563275
997.187	0.558313
997.321	0.568238
997.455	0.563275
997.589	0.547146
997.722	0.574442
997.856	0.562035
997.99	0.557072
998.124	0.584367
998.258	0.569479
998.392	0.55335
998.526	0.569479
998.66	0.554591
998.794	0.549628
998.928	0.544665
999.062	0.573201
999.196	0.548387
999.33	0.562035
999.464	0.555831
999.597	0.583127
999.731	0.569479
999.865	0.559553
999.999	0.540943
1000.13	0.57072
1000.27	0.559553
1000.4	0.548387
1000.53	0.593052
1000.67	0.575682
1000.8	0.560794
1000.94	0.555831
1001.07	0.549628
1001.2	0.559553
1001.34	0.542184
1001.47	0.559553
1001.61	0.557072
1001.74	0.557072
1001.87	0.557072
1002.01	0.575682
1002.14	0.558313
1002.28	0.569479
1002.41	0.563275
1002.54	0.565757
1002.68	0.560794
1002.81	0.558313
1002.95	0.55335
1003.08	0.558313
1003.21	0.552109
1003.35	0.579404
1003.48	0.549628
1003.61	0.573201
1003.75	0.55335
1003.88	0.566998
1004.02	0.549628
1004.15	0.549628
1004.28	0.550868
1004.42	0.552109
1004.55	0.560794
1004.69	0.562035
1004.82	0.550868
1004.95	0.55335
1005.09	0.579404
1005.22	0.566998
1005.36	0.539702
1005.49	0.578164
1005.62	0.549628
1005.76	0.569479
1005.89	0.552109
1006.03	0.552109
1006.16	0.555831
1006.29	0.554591
1006.43	0.534739
1006.56	0.545906
1006.69	0.557072
1006.83	0.574442
1006.96	0.548387
1007.1	0.557072
1007.23	0.576923
1007.36	0.563275
1007.5	0.569479
1007.63	0.568238
1007.77	0.560794
1007.9	0.549628
1008.03	0.552109
1008.17	0.550868
1008.3	0.569479
1008.44	0.55335
1008.57	0.550868
1008.7	0.558313
1008.84	0.573201
1008.97	0.57196
1009.1	0.558313
1009.24	0.566998
1009.37	0.562035
1009.51	0.55335
1009.64	0.563275
1009.77	0.564516
1009.91	0.568238
1010.04	0.548387
1010.18	0.564516
1010.31	0.554591
1010.44	0.548387
1010.58	0.568238
1010.71	0.562035
1010.85	0.557072
1010.98	0.578164
1011.11	0.552109
1011.25	0.557072
1011.38	0.55335
1011.51	0.574442
1011.65	0.562035
1011.78	0.557072
1011.92	0.58933
1012.05	0.547146
1012.18	0.573201
1012.32	0.560794
1012.45	0.559553
1012.59	0.558313
1012.72	0.542184
1012.85	0.552109
1012.99	0.547146
1013.12	0.550868
1013.26	0.547146
1013.39	0.549628
1013.52	0.55335
1013.66	0.560794
1013.79	0.583127
1013.92	0.560794
1014.06	0.542184
1014.19	0.559553
1014.33	0.559553
1014.46	0.562035
1014.59	0.555831
1014.73	0.540943
1014.86	0.552109
1015	0.550868
1015.13	0.554591
1015.26	0.576923
1015.4	0.573201
1015.53	0.547146
1015.67	0.554591
1015.8	0.552109
1015.93	0.555831
1016.07	0.560794
1016.2	0.563275
1016.33	0.563275
1016.47	0.586849
1016.6	0.545906
1016.74	0.560794
1016.87	0.560794
1017	0.578164
1017.14	0.550868
1017.27	0.57072
1017.41	0.563275
1017.54	0.557072
1017.67	0.57072
1017.81	0.549628
1017.94	0.563275
1018.07	0.559553
1018.21	0.565757
1018.34	0.560794
1018.48	0.544665
1018.61	0.564516
1018.74	0.564516
1018.88	0.563275
1019.01	0.564516
1019.15	0.558313
1019.28	0.560794
1019.41	0.574442
1019.55	0.554591
1019.68	0.559553
1019.82	0.578164
1019.95	0.575682
1020.08	0.568238
1020.22	0.562035
1020.35	0.554591
1020.48	0.564516
1020.62	0.55335
1020.75	0.562035
1020.89	0.552109
1021.02	0.563275
1021.15	0.555831
1021.29	0.557072
1021.42	0.562035
1021.56	0.559553
1021.69	0.569479
1021.82	0.549628
1021.96	0.547146
1022.09	0.559553
1022.22	0.563275
1022.36	0.550868
1022.49	0.575682
1022.63	0.568238
1022.76	0.545906
1022.89	0.554591
1023.03	0.554591
1023.16	0.564516
1023.3	0.563275
1023.43	0.563275
1023.56	0.573201
1023.7	0.558313
1023.83	0.565757
1023.96	0.554591
1024.1	0.562035
1024.23	0.563275
1024.37	0.550868
1024.5	0.568238
1024.63	0.574442
1024.77	0.559553
1024.9	0.562035
1025.04	0.580645
1025.17	0.547146
1025.3	0.566998
1025.44	0.566998
1025.57	0.564516
1025.7	0.566998
1025.84	0.557072
1025.97	0.564516
1026.11	0.558313
1026.24	0.555831
1026.37	0.563275
1026.51	0.57072
1026.64	0.560794
1026.78	0.554591
1026.91	0.55335
1027.04	0.562035
1027.18	0.559553
1027.31	0.555831
1027.44	0.543424
1027.58	0.563275
1027.71	0.558313
1027.85	0.550868
1027.98	0.552109
1028.11	0.568238
1028.25	0.559553
1028.38	0.560794
1028.52	0.568238
1028.65	0.563275
1028.78	0.549628
1028.92	0.560794
1029.05	0.559553
1029.18	0.573201
1029.32	0.574442
1029.45	0.538462
1029.59	0.57196
1029.72	0.558313
1029.85	0.555831
1029.99	0.569479
1030.12	0.566998
1030.26	0.560794
1030.39	0.583127
1030.52	0.563275
1030.66	0.558313
1030.79	0.552109
1030.92	0.557072
1031.06	0.57196
1031.19	0.581886
1031.33	0.549628
1031.46	0.558313
1031.59	0.547146
1031.73	0.565757
1031.86	0.562035
1031.99	0.57196
1032.13	0.552109
1032.26	0.562035
1032.4	0.557072
1032.53	0.563275
1032.66	0.585608
1032.8	0.547146
1032.93	0.565757
1033.07	0.555831
1033.2	0.558313
1033.33	0.569479
1033.47	0.566998
1033.6	0.579404
1033.73	0.57196
1033.87	0.566998
1034	0.55335
1034.14	0.560794
1034.27	0.557072
1034.4	0.558313
1034.54	0.563275
1034.67	0.555831
1034.81	0.565757
1034.94	0.575682
1035.07	0.552109
1035.21	0.55335
1035.34	0.555831
1035.47	0.555831
1035.61	0.562035
1035.74	0.565757
1035.88	0.562035
1036.01	0.568238
1036.14	0.555831
1036.28	0.564516
1036.41	0.560794
1036.54	0.547146
1036.68	0.555831
1036.81	0.565757
1036.95	0.569479
1037.08	0.559553
1037.21	0.559553
1037.35	0.554591
1037.48	0.548387
1037.62	0.569479
1037.75	0.57072
1037.88	0.555831
1038.02	0.576923
1038.15	0.559553
1038.28	0.554591
1038.42	0.562035
1038.55	0.545906
1038.69	0.558313
1038.82	0.557072
1038.95	0.548387
1039.09	0.564516
1039.22	0.558313
1039.35	0.566998
1039.49	0.58933
1039.62	0.540943
1039.76	0.57196
1039.89	0.560794
1040.02	0.549628
1040.16	0.555831
1040.29	0.557072
1040.43	0.559553
1040.56	0.57072
1040.69	0.568238
1040.83	0.565757
1040.96	0.57072
1041.09	0.563275
1041.23	0.554591
1041.36	0.573201
1041.5	0.569479
1041.63	0.562035
1041.76	0.554591
1041.9	0.565757
1042.03	0.555831
1042.16	0.559553
1042.3	0.552109
1042.43	0.558313
1042.57	0.566998
1042.7	0.573201
1042.83	0.544665
1042.97	0.555831
1043.1	0.568238
1043.23	0.569479
1043.37	0.550868
1043.5	0.558313
1043.64	0.544665
1043.77	0.557072
1043.9	0.562035
1044.04	0.559553
1044.17	0.559553
1044.31	0.560794
1044.44	0.569479
1044.57	0.55335
1044.71	0.563275
1044.84	0.560794
1044.97	0.569479
1045.11	0.555831
1045.24	0.559553
1045.38	0.566998
1045.51	0.568238
1045.64	0.565757
1045.78	0.57196
1045.91	0.549628
1046.04	0.565757
1046.18	0.544665
1046.31	0.560794
1046.45	0.565757
1046.58	0.566998
1046.71	0.552109
1046.85	0.562035
1046.98	0.563275
1047.11	0.57072
1047.25	0.563275
1047.38	0.565757
1047.52	0.569479
1047.65	0.580645
1047.78	0.563275
1047.92	0.576923
1048.05	0.569479
1048.18	0.560794
1048.32	0.565757
1048.45	0.533499
1048.59	0.576923
1048.72	0.57072
1048.85	0.558313
1048.99	0.552109
1049.12	0.565757
1049.25	0.558313
1049.39	0.559553
1049.52	0.540943
1049.66	0.583127
1049.79	0.555831
1049.92	0.557072
1050.06	0.566998
1050.19	0.565757
1050.33	0.564516
1050.46	0.566998
1050.59	0.560794
1050.73	0.555831
1050.86	0.566998
1050.99	0.544665
1051.13	0.564516
1051.26	0.559553
1051.4	0.550868
1051.53	0.559553
1051.66	0.552109
1051.8	0.575682
1051.93	0.55335
1052.06	0.560794
1052.2	0.555831
1052.33	0.562035
1052.47	0.563275
1052.6	0.566998
1052.73	0.57072
1052.87	0.559553
1053	0.564516
1053.13	0.55335
1053.27	0.562035
1053.4	0.55335
1053.54	0.554591
1053.67	0.564516
1053.8	0.554591
1053.94	0.538462
1054.07	0.557072
1054.2	0.566998
1054.34	0.573201
1054.47	0.540943
1054.61	0.558313
1054.74	0.566998
1054.87	0.568238
1055.01	0.578164
1055.14	0.560794
1055.27	0.569479
1055.41	0.533499
1055.54	0.559553
1055.68	0.573201
1055.81	0.55335
1055.94	0.560794
1056.08	0.590571
1056.21	0.563275
1056.34	0.566998
1056.48	0.564516
1056.61	0.549628
1056.75	0.550868
1056.88	0.57196
1057.01	0.57196
1057.15	0.566998
1057.28	0.565757
1057.41	0.57196
1057.55	0.558313
1057.68	0.573201
1057.82	0.57196
1057.95	0.548387
1058.08	0.58933
1058.22	0.568238
1058.35	0.547146
1058.48	0.562035
1058.62	0.563275
1058.75	0.579404
1058.89	0.569479
1059.02	0.57196
1059.15	0.558313
1059.29	0.595533
1059.42	0.566998
1059.55	0.540943
1059.69	0.573201
1059.82	0.559553
1059.96	0.550868
1060.09	0.565757
1060.22	0.562035
1060.36	0.566998
1060.49	0.549628
1060.62	0.549628
1060.76	0.557072
1060.89	0.559553
1061.03	0.579404
1061.16	0.557072
1061.29	0.554591
1061.43	0.566998
1061.56	0.583127
1061.69	0.565757
1061.83	0.57072
1061.96	0.566998
1062.1	0.559553
1062.23	0.547146
1062.36	0.573201
1062.5	0.558313
1062.63	0.560794
1062.76	0.557072
1062.9	0.560794
1063.03	0.55335
1063.17	0.558313
1063.3	0.555831
1063.43	0.558313
1063.57	0.574442
1063.7	0.548387
1063.83	0.550868
1063.97	0.559553
1064.1	0.558313
1064.23	0.55335
1064.37	0.559553
1064.5	0.579404
1064.64	0.554591
1064.77	0.580645
1064.9	0.584367
1065.04	0.580645
1065.17	0.576923
1065.3	0.550868
1065.44	0.576923
1065.57	0.562035
1065.71	0.565757
1065.84	0.575682
1065.97	0.579404
1066.11	0.566998
1066.24	0.558313
1066.37	0.568238
1066.51	0.559553
1066.64	0.563275
1066.78	0.559553
1066.91	0.57196
1067.04	0.569479
1067.18	0.565757
1067.31	0.57196
1067.44	0.562035
1067.58	0.563275
1067.71	0.55335
1067.85	0.574442
1067.98	0.560794
1068.11	0.543424
1068.25	0.557072
1068.38	0.558313
1068.51	0.564516
1068.65	0.565757
1068.78	0.55335
1068.92	0.568238
1069.05	0.564516
1069.18	0.543424
1069.32	0.569479
1069.45	0.549628
1069.58	0.550868
1069.72	0.562035
1069.85	0.574442
1069.98	0.573201
1070.12	0.568238
1070.25	0.573201
1070.39	0.568238
1070.52	0.568238
1070.65	0.560794
1070.79	0.562035
1070.92	0.558313
1071.05	0.554591
1071.19	0.581886
1071.32	0.569479
1071.46	0.552109
1071.59	0.573201
1071.72	0.564516
1071.86	0.560794
1071.99	0.552109
1072.12	0.574442
1072.26	0.57196
1072.39	0.55335
1072.53	0.550868
1072.66	0.563275
1072.79	0.579404
1072.93	0.564516
1073.06	0.559553
1073.19	0.593052
1073.33	0.55335
1073.46	0.564516
1073.59	0.562035
1073.73	0.560794
1073.86	0.549628
1074	0.575682
1074.13	0.557072
1074.26	0.554591
1074.4	0.557072
1074.53	0.565757
1074.66	0.569479
1074.8	0.565757
1074.93	0.557072
1075.07	0.549628
1075.2	0.544665
1075.33	0.57196
1075.47	0.566998
1075.6	0.544665
1075.73	0.559553
1075.87	0.549628
1076	0.566998
1076.14	0.565757
1076.27	0.565757
1076.4	0.565757
1076.54	0.566998
1076.67	0.554591
1076.8	0.563275
1076.94	0.552109
1077.07	0.557072
1077.2	0.558313
1077.34	0.548387
1077.47	0.562035
1077.61	0.57196
1077.74	0.55335
1077.87	0.565757
1078.01	0.57196
1078.14	0.566998
1078.27	0.581886
1078.41	0.568238
1078.54	0.552109
1078.68	0.558313
1078.81	0.564516
1078.94	0.548387
1079.08	0.566998
1079.21	0.57196
1079.34	0.557072
1079.48	0.542184
1079.61	0.579404
1079.74	0.550868
1079.88	0.547146
1080.01	0.566998
1080.15	0.569479
1080.28	0.547146
1080.41	0.573201
1080.55	0.554591
1080.68	0.549628
1080.81	0.555831
1080.95	0.573201
1081.08	0.557072
1081.22	0.554591
1081.35	0.576923
1081.48	0.55335
1081.62	0.565757
1081.75	0.575682
1081.88	0.564516
1082.02	0.559553
1082.15	0.560794
1082.28	0.55335
1082.42	0.560794
1082.55	0.545906
1082.69	0.559553
1082.82	0.566998
1082.95	0.563275
1083.09	0.550868
1083.22	0.554591
1083.35	0.549628
1083.49	0.579404
1083.62	0.562035
1083.75	0.57196
1083.89	0.564516
1084.02	0.550868
1084.16	0.55335
1084.29	0.568238
1084.42	0.565757
1084.56	0.563275
1084.69	0.55335
1084.82	0.563275
1084.96	0.562035
1085.09	0.555831
1085.23	0.554591
1085.36	0.574442
1085.49	0.55335
1085.63	0.562035
1085.76	0.569479
1085.89	0.573201
1086.03	0.550868
1086.16	0.555831
1086.29	0.564516
1086.43	0.544665
1086.56	0.565757
1086.7	0.558313
1086.83	0.554591
1086.96	0.563275
1087.1	0.568238
1087.23	0.559553
1087.36	0.563275
1087.5	0.573201
1087.63	0.548387
1087.76	0.578164
1087.9	0.559553
1088.03	0.57072
1088.17	0.578164
1088.3	0.564516
1088.43	0.545906
1088.57	0.55335
1088.7	0.576923
1088.83	0.552109
1088.97	0.559553
1089.1	0.560794
1089.24	0.558313
1089.37	0.583127
1089.5	0.558313
1089.64	0.57072
1089.77	0.564516
1089.9	0.537221
1090.04	0.57072
1090.17	0.555831
1090.3	0.563275
1090.44	0.564516
1090.57	0.550868
1090.71	0.568238
1090.84	0.573201
1090.97	0.544665
1091.11	0.576923
1091.24	0.562035
1091.37	0.566998
1091.51	0.540943
1091.64	0.575682
1091.77	0.558313
1091.91	0.555831
1092.04	0.57072
1092.18	0.569479
1092.31	0.564516
1092.44	0.560794
1092.58	0.566998
1092.71	0.55335
1092.84	0.57072
1092.98	0.585608
1093.11	0.576923
1093.24	0.57072
1093.38	0.557072
1093.51	0.566998
1093.65	0.564516
1093.78	0.563275
1093.91	0.548387
1094.05	0.560794
1094.18	0.574442
1094.31	0.557072
1094.45	0.565757
1094.58	0.547146
1094.71	0.543424
1094.85	0.569479
1094.98	0.564516
1095.12	0.568238
1095.25	0.555831
1095.38	0.547146
1095.52	0.557072
1095.65	0.562035
1095.78	0.573201
1095.92	0.542184
1096.05	0.564516
1096.18	0.554591
1096.32	0.548387
1096.45	0.565757
1096.59	0.554591
1096.72	0.559553
1096.85	0.558313
1096.99	0.573201
1097.12	0.576923
1097.25	0.565757
1097.39	0.53598
1097.52	0.565757
1097.65	0.576923
1097.79	0.564516
1097.92	0.555831
1098.06	0.560794
1098.19	0.557072
1098.32	0.564516
1098.46	0.563275
1098.59	0.565757
1098.72	0.562035
1098.86	0.565757
1098.99	0.555831
1099.12	0.544665
1099.26	0.564516
1099.39	0.559553
1099.53	0.555831
1099.66	0.563275
1099.79	0.555831
1099.93	0.55335
1100.06	0.575682
1100.19	0.555831
1100.33	0.569479
1100.46	0.552109
1100.59	0.548387
1100.73	0.57072
1100.86	0.557072
1100.99	0.573201
1101.13	0.557072
1101.26	0.576923
1101.4	0.562035
1101.53	0.555831
1101.66	0.549628
1101.8	0.563275
1101.93	0.562035
1102.06	0.55335
1102.2	0.534739
1102.33	0.559553
1102.46	0.565757
1102.6	0.563275
1102.73	0.578164
1102.87	0.578164
1103	0.559553
1103.13	0.573201
1103.27	0.576923
1103.4	0.578164
1103.53	0.539702
1103.67	0.568238
1103.8	0.564516
1103.93	0.557072
1104.07	0.57072
1104.2	0.55335
1104.34	0.557072
1104.47	0.549628
1104.6	0.558313
1104.74	0.584367
1104.87	0.545906
1105	0.578164
1105.14	0.559553
1105.27	0.573201
1105.4	0.542184
1105.54	0.557072
1105.67	0.566998
1105.8	0.557072
1105.94	0.562035
1106.07	0.564516
1106.21	0.547146
1106.34	0.555831
1106.47	0.573201
1106.61	0.569479
1106.74	0.560794
1106.87	0.562035
1107.01	0.559553
1107.14	0.55335
1107.27	0.581886
1107.41	0.560794
1107.54	0.565757

