Source: Spectrum Viewer

Chart: Pulse Spectrum

Series: 
Wavelength (nm)	S (a.u.)
617.638	0.0781142
617.773	0.0789745
617.908	0.0769098
618.043	0.0791466
618.178	0.0770819
618.313	0.0812113
618.448	0.0784584
618.583	0.0782863
618.718	0.0788025
618.853	0.0800069
618.988	0.0769098
619.123	0.0794907
619.258	0.0767378
619.394	0.0770819
619.529	0.0767378
619.664	0.0770819
619.799	0.0784584
619.934	0.0769098
620.069	0.0763937
620.204	0.0777701
620.339	0.0784584
620.474	0.0793187
620.609	0.0798348
620.744	0.0779422
620.879	0.0793187
621.014	0.077426
621.149	0.0767378
621.284	0.0770819
621.419	0.0786304
621.554	0.0763937
621.689	0.0789745
621.825	0.0786304
621.96	0.0753613
622.095	0.0779422
622.23	0.0791466
622.365	0.0793187
622.5	0.077254
622.635	0.0794907
622.77	0.0786304
622.905	0.0788025
623.04	0.0769098
623.175	0.0789745
623.31	0.0798348
623.445	0.0750172
623.58	0.0777701
623.715	0.0763937
623.85	0.0775981
623.985	0.0769098
624.12	0.0793187
624.255	0.0786304
624.39	0.0779422
624.525	0.0781142
624.661	0.0769098
624.796	0.0794907
624.931	0.077426
625.066	0.0781142
625.201	0.077254
625.336	0.0760496
625.471	0.0796628
625.606	0.0782863
625.741	0.0769098
625.876	0.0805231
626.011	0.0784584
626.146	0.0794907
626.281	0.0763937
626.416	0.0765657
626.551	0.0788025
626.686	0.0786304
626.821	0.0769098
626.956	0.0757054
627.091	0.0788025
627.226	0.0789745
627.361	0.0786304
627.496	0.0796628
627.631	0.0788025
627.766	0.0784584
627.901	0.0748451
628.036	0.077254
628.171	0.077254
628.307	0.080351
628.442	0.0794907
628.577	0.0758775
628.712	0.0793187
628.847	0.0770819
628.982	0.0775981
629.117	0.0762216
629.252	0.0789745
629.387	0.0762216
629.522	0.0791466
629.657	0.0767378
629.792	0.080351
629.927	0.077426
630.062	0.0789745
630.197	0.0770819
630.332	0.0775981
630.467	0.0786304
630.602	0.0791466
630.737	0.0791466
630.872	0.0757054
631.007	0.0779422
631.142	0.0789745
631.277	0.0758775
631.412	0.0800069
631.547	0.0762216
631.682	0.0775981
631.817	0.0786304
631.952	0.0786304
632.087	0.0798348
632.222	0.0767378
632.357	0.0760496
632.492	0.077426
632.627	0.0777701
632.762	0.0767378
632.897	0.0782863
633.032	0.0769098
633.167	0.077254
633.302	0.0762216
633.437	0.0788025
633.572	0.0786304
633.707	0.0760496
633.842	0.0805231
633.978	0.0758775
634.113	0.0775981
634.248	0.0791466
634.383	0.0794907
634.518	0.0762216
634.653	0.077254
634.788	0.0775981
634.923	0.0791466
635.058	0.0753613
635.193	0.0779422
635.328	0.0784584
635.463	0.0794907
635.598	0.0786304
635.733	0.0788025
635.868	0.0763937
636.003	0.0763937
636.138	0.0767378
636.273	0.0810392
636.408	0.077254
636.543	0.0789745
636.678	0.0786304
636.813	0.0755334
636.948	0.0757054
637.083	0.0789745
637.218	0.0786304
637.353	0.0812113
637.488	0.0770819
637.623	0.0770819
637.758	0.0781142
637.893	0.0770819
638.028	0.0775981
638.163	0.0796628
638.298	0.077254
638.433	0.077426
638.568	0.0770819
638.703	0.0781142
638.838	0.0793187
638.973	0.0760496
639.108	0.0782863
639.243	0.0779422
639.378	0.0779422
639.513	0.0757054
639.648	0.0784584
639.783	0.0767378
639.918	0.0775981
640.053	0.0793187
640.188	0.077254
640.323	0.0781142
640.458	0.0796628
640.593	0.0753613
640.728	0.0779422
640.863	0.077254
640.998	0.0760496
641.133	0.0779422
641.268	0.0779422
641.403	0.0784584
641.538	0.0770819
641.673	0.0770819
641.808	0.0784584
641.943	0.0791466
642.078	0.077254
642.213	0.0777701
642.348	0.0770819
642.483	0.0777701
642.618	0.0801789
642.753	0.0784584
642.888	0.077426
643.023	0.0779422
643.158	0.0757054
643.293	0.0755334
643.428	0.077254
643.563	0.0789745
643.698	0.0777701
643.833	0.0782863
643.968	0.0769098
644.103	0.077426
644.237	0.0760496
644.372	0.0796628
644.507	0.077426
644.642	0.0788025
644.777	0.0769098
644.912	0.0784584
645.047	0.0769098
645.182	0.0800069
645.317	0.0786304
645.452	0.077426
645.587	0.0791466
645.722	0.0769098
645.857	0.0777701
645.992	0.0789745
646.127	0.0784584
646.262	0.0784584
646.397	0.0796628
646.532	0.0765657
646.667	0.0788025
646.802	0.0788025
646.937	0.074329
647.072	0.0775981
647.207	0.077426
647.342	0.0781142
647.477	0.0788025
647.612	0.0760496
647.747	0.0760496
647.882	0.0794907
648.017	0.074501
648.152	0.0765657
648.287	0.0779422
648.422	0.0765657
648.557	0.0786304
648.692	0.0791466
648.827	0.077426
648.962	0.0767378
649.097	0.077426
649.232	0.0793187
649.367	0.0789745
649.502	0.0769098
649.637	0.077426
649.772	0.0758775
649.906	0.0775981
650.041	0.0784584
650.176	0.0784584
650.311	0.0781142
650.446	0.0788025
650.581	0.0760496
650.716	0.0782863
650.851	0.0784584
650.986	0.0782863
651.121	0.077254
651.256	0.0791466
651.391	0.0770819
651.526	0.0769098
651.661	0.077254
651.796	0.0755334
651.931	0.0786304
652.066	0.0777701
652.201	0.0798348
652.336	0.0757054
652.471	0.0796628
652.606	0.0782863
652.741	0.0779422
652.876	0.0779422
653.011	0.077426
653.146	0.0781142
653.281	0.0758775
653.415	0.0769098
653.55	0.0800069
653.685	0.0763937
653.82	0.0775981
653.955	0.0770819
654.09	0.0786304
654.225	0.0777701
654.36	0.0779422
654.495	0.0782863
654.63	0.077426
654.765	0.0779422
654.9	0.0739849
655.035	0.0765657
655.17	0.0763937
655.305	0.0788025
655.44	0.0786304
655.575	0.0782863
655.71	0.077254
655.845	0.077426
655.98	0.0786304
656.115	0.0753613
656.25	0.077426
656.384	0.0762216
656.519	0.0805231
656.654	0.0788025
656.789	0.0793187
656.924	0.0767378
657.059	0.077254
657.194	0.0791466
657.329	0.0791466
657.464	0.0798348
657.599	0.0763937
657.734	0.0779422
657.869	0.0781142
658.004	0.0781142
658.139	0.0769098
658.274	0.0777701
658.409	0.0781142
658.544	0.0770819
658.679	0.0796628
658.813	0.0781142
658.948	0.0770819
659.083	0.0791466
659.218	0.0762216
659.353	0.0788025
659.488	0.0794907
659.623	0.0793187
659.758	0.0763937
659.893	0.0765657
660.028	0.0786304
660.163	0.0789745
660.298	0.0769098
660.433	0.0751893
660.568	0.0782863
660.703	0.0784584
660.838	0.0781142
660.972	0.0786304
661.107	0.0781142
661.242	0.077254
661.377	0.0767378
661.512	0.0782863
661.647	0.0788025
661.782	0.0763937
661.917	0.0786304
662.052	0.0767378
662.187	0.0788025
662.322	0.0781142
662.457	0.0755334
662.592	0.0777701
662.727	0.0762216
662.862	0.0770819
662.996	0.0767378
663.131	0.0800069
663.266	0.0808672
663.401	0.0770819
663.536	0.0753613
663.671	0.0767378
663.806	0.0781142
663.941	0.0777701
664.076	0.0786304
664.211	0.0782863
664.346	0.0760496
664.481	0.0793187
664.616	0.0770819
664.75	0.0781142
664.885	0.0784584
665.02	0.0760496
665.155	0.0767378
665.29	0.077426
665.425	0.0770819
665.56	0.0769098
665.695	0.0788025
665.83	0.0762216
665.965	0.0784584
666.1	0.0789745
666.235	0.0765657
666.37	0.0765657
666.504	0.0788025
666.639	0.0777701
666.774	0.077254
666.909	0.0767378
667.044	0.0798348
667.179	0.0769098
667.314	0.0786304
667.449	0.0763937
667.584	0.0782863
667.719	0.074501
667.854	0.0775981
667.989	0.0788025
668.123	0.077254
668.258	0.077426
668.393	0.0794907
668.528	0.0767378
668.663	0.0763937
668.798	0.0750172
668.933	0.077254
669.068	0.0763937
669.203	0.0770819
669.338	0.0782863
669.473	0.0808672
669.607	0.0781142
669.742	0.0779422
669.877	0.0777701
670.012	0.077254
670.147	0.0793187
670.282	0.0777701
670.417	0.0763937
670.552	0.0794907
670.687	0.0769098
670.822	0.0782863
670.957	0.0777701
671.091	0.0770819
671.226	0.0784584
671.361	0.077426
671.496	0.0767378
671.631	0.0775981
671.766	0.0791466
671.901	0.0788025
672.036	0.0755334
672.171	0.0763937
672.306	0.0762216
672.44	0.0805231
672.575	0.0786304
672.71	0.0798348
672.845	0.0779422
672.98	0.0784584
673.115	0.0775981
673.25	0.0758775
673.385	0.0806951
673.52	0.0788025
673.655	0.0789745
673.789	0.0789745
673.924	0.0775981
674.059	0.0784584
674.194	0.0793187
674.329	0.0762216
674.464	0.0763937
674.599	0.0784584
674.734	0.0784584
674.869	0.0775981
675.003	0.0794907
675.138	0.077426
675.273	0.0767378
675.408	0.0779422
675.543	0.0777701
675.678	0.0767378
675.813	0.0777701
675.948	0.077426
676.083	0.0784584
676.217	0.0782863
676.352	0.0775981
676.487	0.0751893
676.622	0.0762216
676.757	0.0806951
676.892	0.0782863
677.027	0.0782863
677.162	0.0779422
677.297	0.0779422
677.431	0.077426
677.566	0.0763937
677.701	0.0758775
677.836	0.0784584
677.971	0.0781142
678.106	0.0794907
678.241	0.0779422
678.376	0.0760496
678.511	0.0770819
678.645	0.0786304
678.78	0.0760496
678.915	0.0775981
679.05	0.0755334
679.185	0.0793187
679.32	0.0760496
679.455	0.0777701
679.59	0.0779422
679.724	0.0770819
679.859	0.0791466
679.994	0.0765657
680.129	0.0810392
680.264	0.0805231
680.399	0.0788025
680.534	0.0794907
680.669	0.0755334
680.803	0.0794907
680.938	0.0769098
681.073	0.0791466
681.208	0.0765657
681.343	0.0777701
681.478	0.0788025
681.613	0.0751893
681.748	0.0801789
681.882	0.0770819
682.017	0.0775981
682.152	0.0777701
682.287	0.077254
682.422	0.0760496
682.557	0.0808672
682.692	0.0753613
682.827	0.0784584
682.961	0.0762216
683.096	0.0779422
683.231	0.0760496
683.366	0.0789745
683.501	0.0784584
683.636	0.077426
683.771	0.0794907
683.906	0.0779422
684.04	0.0781142
684.175	0.0789745
684.31	0.0810392
684.445	0.0777701
684.58	0.0793187
684.715	0.0788025
684.85	0.0770819
684.984	0.0789745
685.119	0.0751893
685.254	0.077426
685.389	0.074501
685.524	0.0789745
685.659	0.0781142
685.794	0.077254
685.928	0.0788025
686.063	0.0775981
686.198	0.0793187
686.333	0.0788025
686.468	0.0793187
686.603	0.0793187
686.738	0.0775981
686.872	0.0746731
687.007	0.0775981
687.142	0.0798348
687.277	0.0769098
687.412	0.0784584
687.547	0.0769098
687.682	0.0770819
687.816	0.077426
687.951	0.0770819
688.086	0.0750172
688.221	0.0784584
688.356	0.0765657
688.491	0.077426
688.626	0.0827598
688.76	0.0765657
688.895	0.0781142
689.03	0.0762216
689.165	0.0784584
689.3	0.0777701
689.435	0.0781142
689.57	0.077426
689.704	0.0789745
689.839	0.0782863
689.974	0.077254
690.109	0.077426
690.244	0.0788025
690.379	0.0760496
690.513	0.0775981
690.648	0.0794907
690.783	0.0750172
690.918	0.0788025
691.053	0.0765657
691.188	0.0775981
691.323	0.0777701
691.457	0.0786304
691.592	0.0779422
691.727	0.0770819
691.862	0.0786304
691.997	0.0786304
692.132	0.0777701
692.266	0.0770819
692.401	0.0798348
692.536	0.0763937
692.671	0.0770819
692.806	0.0763937
692.941	0.0793187
693.075	0.0788025
693.21	0.0753613
693.345	0.0784584
693.48	0.0762216
693.615	0.0781142
693.75	0.0784584
693.885	0.0781142
694.019	0.0760496
694.154	0.0775981
694.289	0.0770819
694.424	0.0770819
694.559	0.0769098
694.694	0.0762216
694.828	0.0770819
694.963	0.0762216
695.098	0.0798348
695.233	0.0760496
695.368	0.0781142
695.503	0.0781142
695.637	0.077426
695.772	0.0777701
695.907	0.077426
696.042	0.0793187
696.177	0.0791466
696.312	0.077254
696.446	0.0757054
696.581	0.0767378
696.716	0.0791466
696.851	0.0786304
696.986	0.0755334
697.12	0.0762216
697.255	0.0779422
697.39	0.0786304
697.525	0.0782863
697.66	0.0784584
697.795	0.0770819
697.929	0.0788025
698.064	0.0798348
698.199	0.0781142
698.334	0.0777701
698.469	0.0765657
698.604	0.0769098
698.738	0.0767378
698.873	0.077426
699.008	0.0777701
699.143	0.0775981
699.278	0.0775981
699.412	0.0784584
699.547	0.0789745
699.682	0.080351
699.817	0.0779422
699.952	0.0760496
700.087	0.0781142
700.221	0.0781142
700.356	0.0750172
700.491	0.0789745
700.626	0.0760496
700.761	0.0769098
700.895	0.0781142
701.03	0.0784584
701.165	0.0805231
701.3	0.077426
701.435	0.0770819
701.57	0.0808672
701.704	0.0781142
701.839	0.0794907
701.974	0.077254
702.109	0.0815554
702.244	0.0782863
702.378	0.0779422
702.513	0.0760496
702.648	0.0806951
702.783	0.0791466
702.918	0.0796628
703.052	0.077254
703.187	0.0770819
703.322	0.0781142
703.457	0.0801789
703.592	0.0788025
703.727	0.0769098
703.861	0.077254
703.996	0.0777701
704.131	0.0794907
704.266	0.0775981
704.401	0.0762216
704.535	0.0781142
704.67	0.077426
704.805	0.0810392
704.94	0.0779422
705.075	0.0777701
705.209	0.0781142
705.344	0.0789745
705.479	0.0767378
705.614	0.0748451
705.749	0.0763937
705.883	0.0794907
706.018	0.0779422
706.153	0.0770819
706.288	0.0775981
706.423	0.077254
706.557	0.0775981
706.692	0.0775981
706.827	0.080351
706.962	0.077426
707.097	0.0786304
707.231	0.0786304
707.366	0.0767378
707.501	0.0793187
707.636	0.0775981
707.771	0.077254
707.905	0.0760496
708.04	0.0777701
708.175	0.0782863
708.31	0.0789745
708.445	0.0769098
708.579	0.0779422
708.714	0.0794907
708.849	0.0786304
708.984	0.0793187
709.118	0.0779422
709.253	0.0769098
709.388	0.0781142
709.523	0.0793187
709.658	0.0786304
709.792	0.0765657
709.927	0.0781142
710.062	0.0770819
710.197	0.0763937
710.332	0.0770819
710.466	0.0801789
710.601	0.0817275
710.736	0.077254
710.871	0.0762216
711.006	0.0777701
711.14	0.0758775
711.275	0.0763937
711.41	0.0782863
711.545	0.0798348
711.679	0.0775981
711.814	0.0781142
711.949	0.0775981
712.084	0.0798348
712.219	0.0777701
712.353	0.0769098
712.488	0.0788025
712.623	0.0801789
712.758	0.0800069
712.892	0.0763937
713.027	0.0793187
713.162	0.0779422
713.297	0.077426
713.432	0.0777701
713.566	0.0765657
713.701	0.0784584
713.836	0.0808672
713.971	0.0801789
714.105	0.0779422
714.24	0.0760496
714.375	0.077426
714.51	0.0808672
714.645	0.0805231
714.779	0.0798348
714.914	0.0782863
715.049	0.0800069
715.184	0.0751893
715.318	0.0760496
715.453	0.077254
715.588	0.0775981
715.723	0.0777701
715.858	0.0775981
715.992	0.0788025
716.127	0.0784584
716.262	0.0782863
716.397	0.0784584
716.531	0.0769098
716.666	0.0786304
716.801	0.0762216
716.936	0.0796628
717.07	0.0769098
717.205	0.0801789
717.34	0.0800069
717.475	0.077254
717.61	0.0789745
717.744	0.0779422
717.879	0.0793187
718.014	0.0788025
718.149	0.0775981
718.283	0.0765657
718.418	0.0788025
718.553	0.0791466
718.688	0.0770819
718.822	0.0796628
718.957	0.0791466
719.092	0.0788025
719.227	0.0767378
719.361	0.0793187
719.496	0.077426
719.631	0.0789745
719.766	0.0784584
719.9	0.0758775
720.035	0.0786304
720.17	0.0775981
720.305	0.0755334
720.44	0.0751893
720.574	0.0779422
720.709	0.0818995
720.844	0.0767378
720.979	0.077426
721.113	0.0739849
721.248	0.077426
721.383	0.0781142
721.518	0.0788025
721.652	0.077426
721.787	0.0770819
721.922	0.0775981
722.057	0.0769098
722.191	0.0779422
722.326	0.0760496
722.461	0.077254
722.596	0.0763937
722.73	0.0777701
722.865	0.077426
723	0.0775981
723.135	0.080351
723.269	0.0777701
723.404	0.0755334
723.539	0.0765657
723.674	0.0789745
723.808	0.0760496
723.943	0.0788025
724.078	0.0784584
724.213	0.0793187
724.347	0.0791466
724.482	0.0784584
724.617	0.0791466
724.752	0.0762216
724.886	0.0777701
725.021	0.0767378
725.156	0.0794907
725.291	0.0775981
725.425	0.0779422
725.56	0.0767378
725.695	0.0798348
725.829	0.0760496
725.964	0.0784584
726.099	0.0782863
726.234	0.0788025
726.368	0.0786304
726.503	0.0767378
726.638	0.0757054
726.773	0.077254
726.907	0.0779422
727.042	0.0775981
727.177	0.0775981
727.312	0.0760496
727.446	0.0767378
727.581	0.0796628
727.716	0.0788025
727.851	0.0769098
727.985	0.080351
728.12	0.0775981
728.255	0.0775981
728.389	0.0793187
728.524	0.0779422
728.659	0.0779422
728.794	0.0760496
728.928	0.077426
729.063	0.0781142
729.198	0.0770819
729.333	0.0789745
729.467	0.077254
729.602	0.0755334
729.737	0.077426
729.872	0.0777701
730.006	0.0765657
730.141	0.077426
730.276	0.0796628
730.41	0.0820716
730.545	0.0794907
730.68	0.0796628
730.815	0.0767378
730.949	0.0791466
731.084	0.0781142
731.219	0.0763937
731.354	0.077426
731.488	0.0770819
731.623	0.0794907
731.758	0.0784584
731.892	0.077254
732.027	0.0767378
732.162	0.0788025
732.297	0.0769098
732.431	0.0769098
732.566	0.0779422
732.701	0.0777701
732.835	0.0784584
732.97	0.0777701
733.105	0.0762216
733.24	0.0751893
733.374	0.0801789
733.509	0.0767378
733.644	0.0782863
733.779	0.0770819
733.913	0.0786304
734.048	0.0751893
734.183	0.0760496
734.317	0.077254
734.452	0.0753613
734.587	0.0777701
734.722	0.0798348
734.856	0.077426
734.991	0.077426
735.126	0.0746731
735.26	0.0775981
735.395	0.0770819
735.53	0.0782863
735.665	0.0800069
735.799	0.0775981
735.934	0.0791466
736.069	0.0767378
736.203	0.0767378
736.338	0.0775981
736.473	0.0775981
736.607	0.0781142
736.742	0.077426
736.877	0.0769098
737.012	0.0784584
737.146	0.0813833
737.281	0.0769098
737.416	0.0779422
737.55	0.0786304
737.685	0.0779422
737.82	0.077254
737.955	0.0762216
738.089	0.0788025
738.224	0.077254
738.359	0.0786304
738.493	0.0755334
738.628	0.0763937
738.763	0.0786304
738.897	0.0782863
739.032	0.0786304
739.167	0.0775981
739.302	0.0769098
739.436	0.0763937
739.571	0.0794907
739.706	0.0767378
739.84	0.0789745
739.975	0.0769098
740.11	0.077254
740.244	0.077426
740.379	0.0794907
740.514	0.0775981
740.649	0.0782863
740.783	0.0788025
740.918	0.0782863
741.053	0.0751893
741.187	0.0770819
741.322	0.074501
741.457	0.0788025
741.591	0.0777701
741.726	0.0789745
741.861	0.0779422
741.996	0.0782863
742.13	0.0765657
742.265	0.0815554
742.4	0.0794907
742.534	0.0782863
742.669	0.0775981
742.804	0.0779422
742.938	0.0784584
743.073	0.0779422
743.208	0.0762216
743.342	0.0777701
743.477	0.0741569
743.612	0.0779422
743.747	0.0779422
743.881	0.0762216
744.016	0.077426
744.151	0.0755334
744.285	0.0779422
744.42	0.0786304
744.555	0.0765657
744.689	0.077254
744.824	0.0769098
744.959	0.0762216
745.093	0.0763937
745.228	0.0767378
745.363	0.077254
745.497	0.0777701
745.632	0.0788025
745.767	0.0786304
745.901	0.077426
746.036	0.0769098
746.171	0.0775981
746.305	0.0770819
746.44	0.0789745
746.575	0.077254
746.71	0.0769098
746.844	0.0796628
746.979	0.0782863
747.114	0.0770819
747.248	0.0789745
747.383	0.077426
747.518	0.077254
747.652	0.0794907
747.787	0.0786304
747.922	0.0762216
748.056	0.0781142
748.191	0.0784584
748.326	0.0793187
748.46	0.0770819
748.595	0.0796628
748.73	0.0791466
748.864	0.0786304
748.999	0.0767378
749.134	0.0781142
749.268	0.0789745
749.403	0.0767378
749.538	0.0769098
749.672	0.0767378
749.807	0.077254
749.942	0.0770819
750.076	0.0767378
750.211	0.0767378
750.346	0.0791466
750.48	0.077254
750.615	0.0781142
750.75	0.0757054
750.884	0.0789745
751.019	0.0781142
751.154	0.0781142
751.288	0.0784584
751.423	0.0757054
751.558	0.0760496
751.692	0.0769098
751.827	0.0762216
751.962	0.077426
752.096	0.0781142
752.231	0.0808672
752.366	0.0784584
752.5	0.0770819
752.635	0.0765657
752.77	0.0801789
752.904	0.0801789
753.039	0.077426
753.174	0.0794907
753.308	0.0782863
753.443	0.0775981
753.578	0.0738128
753.712	0.0789745
753.847	0.0788025
753.982	0.0769098
754.116	0.077426
754.251	0.0779422
754.386	0.0784584
754.52	0.0777701
754.655	0.0777701
754.79	0.0779422
754.924	0.0760496
755.059	0.0777701
755.194	0.0784584
755.328	0.0765657
755.463	0.077426
755.597	0.0767378
755.732	0.0762216
755.867	0.077254
756.001	0.0762216
756.136	0.0782863
756.271	0.0753613
756.405	0.0789745
756.54	0.0782863
756.675	0.0765657
756.809	0.0767378
756.944	0.0789745
757.079	0.0765657
757.213	0.0784584
757.348	0.0782863
757.483	0.0760496
757.617	0.0762216
757.752	0.0753613
757.887	0.0788025
758.021	0.077254
758.156	0.0788025
758.29	0.0758775
758.425	0.0782863
758.56	0.0760496
758.694	0.0767378
758.829	0.0755334
758.964	0.0779422
759.098	0.077254
759.233	0.0775981
759.368	0.0798348
759.502	0.0791466
759.637	0.0781142
759.772	0.0781142
759.906	0.0760496
760.041	0.077426
760.175	0.0763937
760.31	0.074501
760.445	0.0777701
760.579	0.0791466
760.714	0.077254
760.849	0.0763937
760.983	0.0777701
761.118	0.0784584
761.253	0.0801789
761.387	0.077254
761.522	0.0818995
761.656	0.0782863
761.791	0.0796628
761.926	0.0789745
762.06	0.0767378
762.195	0.0755334
762.33	0.0789745
762.464	0.0779422
762.599	0.0770819
762.733	0.0769098
762.868	0.0769098
763.003	0.0791466
763.137	0.0800069
763.272	0.0775981
763.407	0.0777701
763.541	0.080351
763.676	0.0762216
763.811	0.0777701
763.945	0.0760496
764.08	0.077254
764.214	0.0789745
764.349	0.0791466
764.484	0.0767378
764.618	0.0777701
764.753	0.0775981
764.888	0.0789745
765.022	0.0760496
765.157	0.077254
765.291	0.0800069
765.426	0.0775981
765.561	0.0782863
765.695	0.077254
765.83	0.077254
765.965	0.0755334
766.099	0.0770819
766.234	0.0786304
766.368	0.0781142
766.503	0.0782863
766.638	0.0765657
766.772	0.0789745
766.907	0.077254
767.041	0.0748451
767.176	0.077426
767.311	0.0767378
767.445	0.0779422
767.58	0.0793187
767.715	0.0760496
767.849	0.0769098
767.984	0.077254
768.118	0.0782863
768.253	0.0758775
768.388	0.0801789
768.522	0.0770819
768.657	0.0782863
768.791	0.0765657
768.926	0.0775981
769.061	0.0775981
769.195	0.0767378
769.33	0.0786304
769.465	0.0767378
769.599	0.0775981
769.734	0.0739849
769.868	0.0770819
770.003	0.0791466
770.138	0.0762216
770.272	0.077426
770.407	0.0760496
770.541	0.0788025
770.676	0.0767378
770.811	0.0791466
770.945	0.077254
771.08	0.0779422
771.214	0.0788025
771.349	0.0786304
771.484	0.0769098
771.618	0.0782863
771.753	0.0767378
771.887	0.0784584
772.022	0.0788025
772.157	0.0793187
772.291	0.0775981
772.426	0.0782863
772.56	0.0793187
772.695	0.0781142
772.83	0.0784584
772.964	0.0784584
773.099	0.0791466
773.233	0.0777701
773.368	0.0810392
773.503	0.077426
773.637	0.0767378
773.772	0.0762216
773.906	0.077254
774.041	0.0794907
774.176	0.0755334
774.31	0.0794907
774.445	0.0767378
774.579	0.0796628
774.714	0.0775981
774.849	0.0793187
774.983	0.0779422
775.118	0.0777701
775.252	0.0791466
775.387	0.0767378
775.522	0.0770819
775.656	0.0781142
775.791	0.0805231
775.925	0.0767378
776.06	0.077426
776.195	0.0794907
776.329	0.0782863
776.464	0.0770819
776.598	0.0757054
776.733	0.0775981
776.868	0.0788025
777.002	0.0784584
777.137	0.0770819
777.271	0.0818995
777.406	0.080351
777.54	0.0775981
777.675	0.0779422
777.81	0.077254
777.944	0.0760496
778.079	0.0757054
778.213	0.077254
778.348	0.0775981
778.483	0.0788025
778.617	0.0762216
778.752	0.0810392
778.886	0.0751893
779.021	0.0781142
779.155	0.0767378
779.29	0.0775981
779.425	0.0746731
779.559	0.0779422
779.694	0.0796628
779.828	0.0781142
779.963	0.0760496
780.098	0.0796628
780.232	0.0801789
780.367	0.077254
780.501	0.0793187
780.636	0.0777701
780.77	0.0782863
780.905	0.0796628
781.04	0.0781142
781.174	0.0758775
781.309	0.0805231
781.443	0.0760496
781.578	0.0784584
781.712	0.0779422
781.847	0.0765657
781.982	0.0791466
782.116	0.0788025
782.251	0.0794907
782.385	0.0781142
782.52	0.0750172
782.654	0.0779422
782.789	0.0786304
782.924	0.0810392
783.058	0.0767378
783.193	0.0777701
783.327	0.0775981
783.462	0.0763937
783.596	0.077254
783.731	0.0782863
783.866	0.0784584
784	0.0810392
784.135	0.0777701
784.269	0.0786304
784.404	0.0769098
784.538	0.077426
784.673	0.0796628
784.808	0.0793187
784.942	0.0786304
785.077	0.0769098
785.211	0.0739849
785.346	0.0805231
785.48	0.0769098
785.615	0.0758775
785.75	0.0789745
785.884	0.0788025
786.019	0.0788025
786.153	0.0789745
786.288	0.0775981
786.422	0.080351
786.557	0.0779422
786.691	0.0779422
786.826	0.0775981
786.961	0.0784584
787.095	0.0777701
787.23	0.077426
787.364	0.0769098
787.499	0.0788025
787.633	0.0782863
787.768	0.0777701
787.902	0.0791466
788.037	0.0782863
788.172	0.0782863
788.306	0.0793187
788.441	0.0794907
788.575	0.0794907
788.71	0.0770819
788.844	0.0782863
788.979	0.0763937
789.113	0.0779422
789.248	0.0788025
789.383	0.0775981
789.517	0.0777701
789.652	0.0801789
789.786	0.0808672
789.921	0.0746731
790.055	0.0777701
790.19	0.0782863
790.324	0.0793187
790.459	0.0806951
790.594	0.0788025
790.728	0.0769098
790.863	0.080351
790.997	0.0782863
791.132	0.0789745
791.266	0.0770819
791.401	0.0782863
791.535	0.0765657
791.67	0.0801789
791.804	0.0779422
791.939	0.0786304
792.074	0.0782863
792.208	0.077426
792.343	0.0793187
792.477	0.0757054
792.612	0.0789745
792.746	0.0777701
792.881	0.0784584
793.015	0.0767378
793.15	0.0758775
793.284	0.0781142
793.419	0.0767378
793.553	0.0784584
793.688	0.0781142
793.823	0.0751893
793.957	0.0777701
794.092	0.077254
794.226	0.0763937
794.361	0.0753613
794.495	0.0767378
794.63	0.0781142
794.764	0.0779422
794.899	0.0788025
795.033	0.0770819
795.168	0.0765657
795.302	0.0777701
795.437	0.0779422
795.572	0.0758775
795.706	0.0770819
795.841	0.0789745
795.975	0.0786304
796.11	0.0788025
796.244	0.0782863
796.379	0.0769098
796.513	0.0767378
796.648	0.0788025
796.782	0.077254
796.917	0.0798348
797.051	0.0789745
797.186	0.0794907
797.32	0.0769098
797.455	0.0784584
797.589	0.0767378
797.724	0.0775981
797.859	0.0765657
797.993	0.0767378
798.128	0.0777701
798.262	0.0806951
798.397	0.0777701
798.531	0.0805231
798.666	0.0748451
798.8	0.0777701
798.935	0.0789745
799.069	0.0793187
799.204	0.0765657
799.338	0.0779422
799.473	0.0775981
799.607	0.0770819
799.742	0.0793187
799.876	0.0762216
800.011	0.0781142
800.145	0.0763937
800.28	0.0769098
800.414	0.0770819
800.549	0.077426
800.683	0.0777701
800.818	0.0781142
800.953	0.0793187
801.087	0.0806951
801.222	0.0788025
801.356	0.0779422
801.491	0.0784584
801.625	0.0796628
801.76	0.0794907
801.894	0.080351
802.029	0.0791466
802.163	0.0784584
802.298	0.0786304
802.432	0.0758775
802.567	0.0793187
802.701	0.0762216
802.836	0.0782863
802.97	0.0757054
803.105	0.074501
803.239	0.0805231
803.374	0.0793187
803.508	0.0784584
803.643	0.0788025
803.777	0.0788025
803.912	0.0784584
804.046	0.0793187
804.181	0.0793187
804.315	0.0782863
804.45	0.0800069
804.584	0.0782863
804.719	0.0791466
804.853	0.0779422
804.988	0.077254
805.122	0.0806951
805.257	0.0796628
805.391	0.0801789
805.526	0.0758775
805.66	0.0770819
805.795	0.0791466
805.929	0.080351
806.064	0.0788025
806.198	0.0763937
806.333	0.0779422
806.467	0.0760496
806.602	0.0806951
806.736	0.0770819
806.871	0.0793187
807.005	0.0806951
807.14	0.0781142
807.274	0.0789745
807.409	0.0763937
807.543	0.0831039
807.678	0.0800069
807.812	0.0791466
807.947	0.0798348
808.081	0.0779422
808.216	0.0822436
808.35	0.0798348
808.485	0.0793187
808.619	0.0813833
808.754	0.0837922
808.888	0.0806951
809.023	0.0796628
809.157	0.083448
809.292	0.0815554
809.426	0.0825877
809.561	0.0836201
809.695	0.0836201
809.83	0.0874054
809.964	0.0836201
810.099	0.0891259
810.233	0.0918789
810.368	0.0965244
810.502	0.105643
810.637	0.134033
810.771	0.253097
810.906	0.498968
811.04	0.513076
811.175	0.569683
811.309	0.830179
811.444	1
811.578	0.677047
811.713	0.298348
811.847	0.158809
811.982	0.109257
812.116	0.0891259
812.251	0.0872333
812.385	0.0820716
812.519	0.0848245
812.654	0.0808672
812.788	0.0810392
812.923	0.0815554
813.057	0.0806951
813.192	0.0843083
813.326	0.0796628
813.461	0.0808672
813.595	0.0789745
813.73	0.0789745
813.864	0.0782863
813.999	0.0800069
814.133	0.0825877
814.268	0.0812113
814.402	0.0812113
814.537	0.0757054
814.671	0.077426
814.806	0.0782863
814.94	0.0793187
815.075	0.0791466
815.209	0.0798348
815.344	0.0794907
815.478	0.0779422
815.612	0.0769098
815.747	0.0775981
815.881	0.0793187
816.016	0.0791466
816.15	0.0784584
816.285	0.0806951
816.419	0.080351
816.554	0.080351
816.688	0.0781142
816.823	0.080351
816.957	0.0793187
817.092	0.0794907
817.226	0.0796628
817.361	0.0784584
817.495	0.0779422
817.63	0.0760496
817.764	0.0775981
817.898	0.0782863
818.033	0.0788025
818.167	0.0760496
818.302	0.0779422
818.436	0.0781142
818.571	0.0789745
818.705	0.0779422
818.84	0.0765657
818.974	0.0769098
819.109	0.0781142
819.243	0.0786304
819.378	0.0777701
819.512	0.077254
819.646	0.0813833
819.781	0.0779422
819.915	0.0757054
820.05	0.0798348
820.184	0.0770819
820.319	0.0822436
820.453	0.0763937
820.588	0.0788025
820.722	0.0777701
820.857	0.077254
820.991	0.0793187
821.126	0.0786304
821.26	0.0786304
821.394	0.0782863
821.529	0.0781142
821.663	0.0779422
821.798	0.0763937
821.932	0.0806951
822.067	0.0755334
822.201	0.077254
822.336	0.0796628
822.47	0.0769098
822.605	0.0769098
822.739	0.0788025
822.873	0.0767378
823.008	0.0800069
823.142	0.0767378
823.277	0.0793187
823.411	0.0777701
823.546	0.0779422
823.68	0.0779422
823.815	0.0777701
823.949	0.0806951
824.083	0.0796628
824.218	0.0793187
824.352	0.0789745
824.487	0.0794907
824.621	0.0758775
824.756	0.0769098
824.89	0.0782863
825.025	0.077254
825.159	0.0782863
825.293	0.0777701
825.428	0.0791466
825.562	0.0798348
825.697	0.0770819
825.831	0.0767378
825.966	0.0793187
826.1	0.0782863
826.235	0.0765657
826.369	0.0793187
826.503	0.0751893
826.638	0.0786304
826.772	0.0796628
826.907	0.0755334
827.041	0.0769098
827.176	0.0786304
827.31	0.0806951
827.445	0.0798348
827.579	0.0775981
827.713	0.0781142
827.848	0.0765657
827.982	0.077426
828.117	0.077254
828.251	0.0757054
828.386	0.0794907
828.52	0.0791466
828.654	0.0801789
828.789	0.0782863
828.923	0.0782863
829.058	0.0757054
829.192	0.0788025
829.327	0.0788025
829.461	0.0812113
829.596	0.077426
829.73	0.0765657
829.864	0.0800069
829.999	0.0791466
830.133	0.077254
830.268	0.0786304
830.402	0.0777701
830.537	0.0788025
830.671	0.077254
830.805	0.0775981
830.94	0.0777701
831.074	0.0793187
831.209	0.0781142
831.343	0.077254
831.478	0.0781142
831.612	0.0782863
831.746	0.0777701
831.881	0.0798348
832.015	0.0779422
832.15	0.0769098
832.284	0.0760496
832.418	0.0775981
832.553	0.0788025
832.687	0.0769098
832.822	0.077426
832.956	0.0781142
833.091	0.0779422
833.225	0.0796628
833.359	0.0765657
833.494	0.0793187
833.628	0.0788025
833.763	0.0782863
833.897	0.077254
834.032	0.0750172
834.166	0.0760496
834.3	0.0779422
834.435	0.0784584
834.569	0.0791466
834.704	0.0794907
834.838	0.077426
834.972	0.0775981
835.107	0.0788025
835.241	0.0779422
835.376	0.077254
835.51	0.0762216
835.645	0.0779422
835.779	0.0769098
835.913	0.0794907
836.048	0.0777701
836.182	0.0760496
836.317	0.0770819
836.451	0.0781142
836.585	0.0775981
836.72	0.0800069
836.854	0.0760496
836.989	0.0777701
837.123	0.0769098
837.257	0.0769098
837.392	0.0788025
837.526	0.0775981
837.661	0.0794907
837.795	0.0779422
837.929	0.0765657
838.064	0.0767378
838.198	0.0800069
838.333	0.0801789
838.467	0.0781142
838.602	0.0781142
838.736	0.080351
838.87	0.0762216
839.005	0.0775981
839.139	0.0798348
839.274	0.0769098
839.408	0.0796628
839.542	0.0784584
839.677	0.0789745
839.811	0.0801789
839.946	0.0753613
840.08	0.0769098
840.214	0.0793187
840.349	0.077426
840.483	0.0770819
840.618	0.0760496
840.752	0.077254
840.886	0.0782863
841.021	0.0786304
841.155	0.0777701
841.29	0.0793187
841.424	0.0770819
841.558	0.0775981
841.693	0.0767378
841.827	0.0765657
841.961	0.0775981
842.096	0.0765657
842.23	0.0812113
842.365	0.0769098
842.499	0.0770819
842.633	0.0789745
842.768	0.0775981
842.902	0.0789745
843.037	0.0784584
843.171	0.0779422
843.305	0.0781142
843.44	0.0786304
843.574	0.0779422
843.709	0.0781142
843.843	0.0784584
843.977	0.0781142
844.112	0.077254
844.246	0.0786304
844.381	0.0784584
844.515	0.0791466
844.649	0.0793187
844.784	0.0793187
844.918	0.0781142
845.052	0.0788025
845.187	0.0765657
845.321	0.0763937
845.456	0.0770819
845.59	0.0758775
845.724	0.0794907
845.859	0.0770819
845.993	0.0794907
846.128	0.077426
846.262	0.0793187
846.396	0.0782863
846.531	0.0767378
846.665	0.0779422
846.799	0.0777701
846.934	0.0760496
847.068	0.0782863
847.203	0.0758775
847.337	0.0786304
847.471	0.0770819
847.606	0.0770819
847.74	0.0769098
847.874	0.0770819
848.009	0.0796628
848.143	0.0791466
848.278	0.0781142
848.412	0.0781142
848.546	0.0767378
848.681	0.0781142
848.815	0.0739849
848.949	0.0758775
849.084	0.0808672
849.218	0.0770819
849.353	0.077254
849.487	0.0788025
849.621	0.0784584
849.756	0.0763937
849.89	0.0781142
850.024	0.0781142
850.159	0.0793187
850.293	0.0779422
850.428	0.0784584
850.562	0.0794907
850.696	0.077426
850.831	0.0800069
850.965	0.0767378
851.099	0.0788025
851.234	0.0786304
851.368	0.0777701
851.502	0.0765657
851.637	0.0769098
851.771	0.0770819
851.906	0.0781142
852.04	0.0791466
852.174	0.077254
852.309	0.0786304
852.443	0.0775981
852.577	0.0793187
852.712	0.0786304
852.846	0.077426
852.98	0.0784584
853.115	0.0763937
853.249	0.0765657
853.384	0.0782863
853.518	0.0758775
853.652	0.0784584
853.787	0.0777701
853.921	0.0781142
854.055	0.0777701
854.19	0.0788025
854.324	0.0808672
854.458	0.0782863
854.593	0.0779422
854.727	0.0777701
854.861	0.080351
854.996	0.0786304
855.13	0.0769098
855.265	0.0775981
855.399	0.0775981
855.533	0.080351
855.668	0.0784584
855.802	0.0788025
855.936	0.077426
856.071	0.0762216
856.205	0.0784584
856.339	0.0788025
856.474	0.0777701
856.608	0.0755334
856.742	0.0757054
856.877	0.0782863
857.011	0.0781142
857.145	0.074329
857.28	0.0763937
857.414	0.0789745
857.549	0.0777701
857.683	0.0789745
857.817	0.0763937
857.952	0.0791466
858.086	0.0763937
858.22	0.0779422
858.355	0.0770819
858.489	0.0791466
858.623	0.0753613
858.758	0.0760496
858.892	0.0770819
859.026	0.0779422
859.161	0.0788025
859.295	0.0777701
859.429	0.0784584
859.564	0.0765657
859.698	0.0775981
859.832	0.0781142
859.967	0.077254
860.101	0.0789745
860.235	0.077426
860.37	0.0769098
860.504	0.0788025
860.638	0.0784584
860.773	0.0800069
860.907	0.0767378
861.041	0.0777701
861.176	0.0770819
861.31	0.077426
861.444	0.077426
861.579	0.0767378
861.713	0.0760496
861.847	0.0760496
861.982	0.0765657
862.116	0.0781142
862.25	0.077254
862.385	0.0775981
862.519	0.0763937
862.653	0.0750172
862.788	0.0782863
862.922	0.0781142
863.056	0.0793187
863.191	0.0762216
863.325	0.0765657
863.459	0.0777701
863.594	0.0775981
863.728	0.0800069
863.862	0.0762216
863.997	0.0775981
864.131	0.0791466
864.265	0.0767378
864.4	0.0806951
864.534	0.0788025
864.668	0.080351
864.803	0.0801789
864.937	0.080351
865.071	0.0779422
865.206	0.077254
865.34	0.0775981
865.474	0.0817275
865.609	0.077254
865.743	0.0782863
865.877	0.0758775
866.012	0.0777701
866.146	0.0794907
866.28	0.077254
866.415	0.0786304
866.549	0.077426
866.683	0.0784584
866.818	0.0763937
866.952	0.0782863
867.086	0.0777701
867.221	0.0793187
867.355	0.0788025
867.489	0.0786304
867.623	0.0777701
867.758	0.0757054
867.892	0.0791466
868.026	0.0763937
868.161	0.0769098
868.295	0.0786304
868.429	0.0786304
868.564	0.0789745
868.698	0.0781142
868.832	0.0775981
868.967	0.0784584
869.101	0.0784584
869.235	0.0779422
869.37	0.0784584
869.504	0.077254
869.638	0.0779422
869.773	0.0779422
869.907	0.0762216
870.041	0.0779422
870.175	0.0784584
870.31	0.077254
870.444	0.0789745
870.578	0.0775981
870.713	0.0793187
870.847	0.0789745
870.981	0.0770819
871.116	0.0758775
871.25	0.0741569
871.384	0.0782863
871.519	0.0784584
871.653	0.0769098
871.787	0.0765657
871.921	0.077254
872.056	0.077426
872.19	0.0767378
872.324	0.0800069
872.459	0.0796628
872.593	0.0781142
872.727	0.0770819
872.862	0.0796628
872.996	0.0781142
873.13	0.0779422
873.264	0.0779422
873.399	0.077254
873.533	0.077426
873.667	0.0757054
873.802	0.080351
873.936	0.0757054
874.07	0.0788025
874.205	0.0750172
874.339	0.0789745
874.473	0.0801789
874.607	0.0786304
874.742	0.0781142
874.876	0.0781142
875.01	0.0794907
875.145	0.0767378
875.279	0.0801789
875.413	0.0781142
875.548	0.0788025
875.682	0.0770819
875.816	0.074501
875.95	0.0789745
876.085	0.0779422
876.219	0.0789745
876.353	0.0769098
876.488	0.0757054
876.622	0.0800069
876.756	0.0788025
876.89	0.0762216
877.025	0.077254
877.159	0.0788025
877.293	0.077254
877.428	0.0777701
877.562	0.0781142
877.696	0.0789745
877.83	0.0763937
877.965	0.077426
878.099	0.0794907
878.233	0.0798348
878.368	0.0796628
878.502	0.0777701
878.636	0.0775981
878.77	0.0786304
878.905	0.0769098
879.039	0.0793187
879.173	0.0796628
879.308	0.077254
879.442	0.0775981
879.576	0.0760496
879.71	0.0777701
879.845	0.080351
879.979	0.0794907
880.113	0.0793187
880.248	0.077254
880.382	0.077426
880.516	0.0820716
880.65	0.0762216
880.785	0.0770819
880.919	0.0753613
881.053	0.0794907
881.188	0.0775981
881.322	0.0788025
881.456	0.0779422
881.59	0.0782863
881.725	0.0769098
881.859	0.0750172
881.993	0.0763937
882.127	0.0767378
882.262	0.0782863
882.396	0.0757054
882.53	0.0757054
882.665	0.077426
882.799	0.0767378
882.933	0.0786304
883.067	0.0779422
883.202	0.077254
883.336	0.0800069
883.47	0.0791466
883.604	0.0769098
883.739	0.077254
883.873	0.077254
884.007	0.0791466
884.142	0.0781142
884.276	0.0765657
884.41	0.0784584
884.544	0.0801789
884.679	0.0777701
884.813	0.0789745
884.947	0.0788025
885.081	0.0798348
885.216	0.077426
885.35	0.0757054
885.484	0.0779422
885.618	0.077426
885.753	0.0781142
885.887	0.077254
886.021	0.0763937
886.155	0.077426
886.29	0.0753613
886.424	0.0777701
886.558	0.0789745
886.693	0.0763937
886.827	0.0777701
886.961	0.0782863
887.095	0.0775981
887.23	0.0801789
887.364	0.0781142
887.498	0.0784584
887.632	0.0765657
887.767	0.0779422
887.901	0.0767378
888.035	0.0781142
888.169	0.0779422
888.304	0.0763937
888.438	0.0796628
888.572	0.0758775
888.706	0.0782863
888.841	0.0769098
888.975	0.0769098
889.109	0.0789745
889.243	0.077426
889.378	0.0765657
889.512	0.0791466
889.646	0.0777701
889.78	0.0786304
889.915	0.0781142
890.049	0.0782863
890.183	0.0805231
890.317	0.0781142
890.452	0.0775981
890.586	0.0781142
890.72	0.0786304
890.854	0.0769098
890.989	0.077426
891.123	0.0779422
891.257	0.0784584
891.391	0.0782863
891.526	0.0788025
891.66	0.0800069
891.794	0.0758775
891.928	0.0781142
892.063	0.0767378
892.197	0.0793187
892.331	0.0786304
892.465	0.077426
892.6	0.077254
892.734	0.0782863
892.868	0.0786304
893.002	0.0779422
893.137	0.077426
893.271	0.0767378
893.405	0.0794907
893.539	0.0789745
893.674	0.0751893
893.808	0.0784584
893.942	0.0757054
894.076	0.0784584
894.21	0.0779422
894.345	0.0767378
894.479	0.0793187
894.613	0.077426
894.747	0.0775981
894.882	0.0748451
895.016	0.0777701
895.15	0.0760496
895.284	0.077426
895.419	0.0805231
895.553	0.077426
895.687	0.077254
895.821	0.0777701
895.956	0.0753613
896.09	0.0775981
896.224	0.0796628
896.358	0.077254
896.492	0.0770819
896.627	0.0758775
896.761	0.0775981
896.895	0.0784584
897.029	0.0788025
897.164	0.0784584
897.298	0.0815554
897.432	0.0769098
897.566	0.0760496
897.701	0.080351
897.835	0.0769098
897.969	0.0767378
898.103	0.0775981
898.237	0.077254
898.372	0.0767378
898.506	0.077426
898.64	0.0784584
898.774	0.0782863
898.909	0.0779422
899.043	0.0794907
899.177	0.0765657
899.311	0.0793187
899.445	0.0793187
899.58	0.0789745
899.714	0.077254
899.848	0.0767378
899.982	0.0794907
900.117	0.0770819
900.251	0.0781142
900.385	0.0781142
900.519	0.0808672
900.653	0.0788025
900.788	0.0760496
900.922	0.0770819
901.056	0.0755334
901.19	0.0767378
901.325	0.077254
901.459	0.0786304
901.593	0.0779422
901.727	0.0775981
901.861	0.0765657
901.996	0.0796628
902.13	0.0782863
902.264	0.077426
902.398	0.0767378
902.532	0.0758775
902.667	0.0769098
902.801	0.0762216
902.935	0.0765657
903.069	0.0784584
903.204	0.0767378
903.338	0.077254
903.472	0.0777701
903.606	0.0791466
903.74	0.0779422
903.875	0.0775981
904.009	0.0782863
904.143	0.0786304
904.277	0.0770819
904.411	0.0769098
904.546	0.0762216
904.68	0.0779422
904.814	0.0784584
904.948	0.0793187
905.082	0.0793187
905.217	0.0789745
905.351	0.077254
905.485	0.0789745
905.619	0.0769098
905.753	0.0798348
905.888	0.0782863
906.022	0.0781142
906.156	0.0808672
906.29	0.0784584
906.424	0.0784584
906.559	0.0777701
906.693	0.077426
906.827	0.0784584
906.961	0.0770819
907.095	0.0789745
907.23	0.0793187
907.364	0.0791466
907.498	0.0769098
907.632	0.0779422
907.766	0.0788025
907.901	0.0796628
908.035	0.0796628
908.169	0.0800069
908.303	0.0806951
908.437	0.0769098
908.572	0.0796628
908.706	0.0781142
908.84	0.0757054
908.974	0.0812113
909.108	0.0782863
909.243	0.0793187
909.377	0.0789745
909.511	0.0788025
909.645	0.0770819
909.779	0.0812113
909.914	0.0784584
910.048	0.0765657
910.182	0.077254
910.316	0.0755334
910.45	0.0796628
910.585	0.0762216
910.719	0.080351
910.853	0.0791466
910.987	0.0786304
911.121	0.0779422
911.255	0.0786304
911.39	0.077254
911.524	0.0782863
911.658	0.0788025
911.792	0.0779422
911.926	0.0794907
912.061	0.080351
912.195	0.0789745
912.329	0.0770819
912.463	0.0758775
912.597	0.0813833
912.732	0.0762216
912.866	0.0777701
913	0.0758775
913.134	0.077254
913.268	0.0775981
913.402	0.0788025
913.537	0.0796628
913.671	0.077254
913.805	0.0791466
913.939	0.0784584
914.073	0.0762216
914.208	0.0781142
914.342	0.0767378
914.476	0.080351
914.61	0.0777701
914.744	0.0786304
914.878	0.077254
915.013	0.0788025
915.147	0.0767378
915.281	0.0798348
915.415	0.0791466
915.549	0.0775981
915.683	0.077254
915.818	0.0767378
915.952	0.077426
916.086	0.0782863
916.22	0.0806951
916.354	0.0789745
916.488	0.0806951
916.623	0.0760496
916.757	0.0786304
916.891	0.0765657
917.025	0.077426
917.159	0.0760496
917.293	0.0782863
917.428	0.0784584
917.562	0.0786304
917.696	0.0760496
917.83	0.0788025
917.964	0.0760496
918.098	0.0793187
918.233	0.0786304
918.367	0.0755334
918.501	0.0784584
918.635	0.0788025
918.769	0.0788025
918.903	0.0767378
919.038	0.0794907
919.172	0.0789745
919.306	0.0789745
919.44	0.0784584
919.574	0.0765657
919.708	0.077426
919.843	0.0805231
919.977	0.0777701
920.111	0.0796628
920.245	0.0777701
920.379	0.0791466
920.513	0.077254
920.648	0.0789745
920.782	0.0806951
920.916	0.0791466
921.05	0.0798348
921.184	0.0777701
921.318	0.0779422
921.453	0.0781142
921.587	0.0777701
921.721	0.0767378
921.855	0.0739849
921.989	0.0769098
922.123	0.0789745
922.257	0.077254
922.392	0.0786304
922.526	0.0782863
922.66	0.0796628
922.794	0.0775981
922.928	0.0788025
923.062	0.077426
923.197	0.0777701
923.331	0.0767378
923.465	0.0791466
923.599	0.0788025
923.733	0.0775981
923.867	0.0775981
924.001	0.0770819
924.136	0.0801789
924.27	0.0786304
924.404	0.077254
924.538	0.0762216
924.672	0.0793187
924.806	0.0765657
924.94	0.0760496
925.075	0.0791466
925.209	0.0791466
925.343	0.0794907
925.477	0.0767378
925.611	0.0796628
925.745	0.077254
925.879	0.0763937
926.014	0.0767378
926.148	0.0762216
926.282	0.0784584
926.416	0.0777701
926.55	0.0808672
926.684	0.077426
926.818	0.0775981
926.953	0.0786304
927.087	0.0760496
927.221	0.077254
927.355	0.0791466
927.489	0.0789745
927.623	0.0770819
927.757	0.0775981
927.892	0.077426
928.026	0.0748451
928.16	0.0770819
928.294	0.0798348
928.428	0.0788025
928.562	0.0755334
928.696	0.077426
928.831	0.0788025
928.965	0.0782863
929.099	0.0779422
929.233	0.077254
929.367	0.0770819
929.501	0.0784584
929.635	0.0789745
929.769	0.0784584
929.904	0.0775981
930.038	0.077426
930.172	0.0784584
930.306	0.0777701
930.44	0.0762216
930.574	0.0789745
930.708	0.0786304
930.843	0.0767378
930.977	0.0786304
931.111	0.0789745
931.245	0.0801789
931.379	0.0770819
931.513	0.0758775
931.647	0.0770819
931.781	0.0770819
931.916	0.0789745
932.05	0.077426
932.184	0.0775981
932.318	0.0781142
932.452	0.0781142
932.586	0.0808672
932.72	0.0748451
932.854	0.077426
932.989	0.0781142
933.123	0.077426
933.257	0.0777701
933.391	0.0791466
933.525	0.0775981
933.659	0.0767378
933.793	0.0765657
933.927	0.0760496
934.061	0.0775981
934.196	0.0779422
934.33	0.0781142
934.464	0.0767378
934.598	0.0788025
934.732	0.0788025
934.866	0.0782863
935	0.0770819
935.134	0.0777701
935.269	0.077426
935.403	0.0769098
935.537	0.0757054
935.671	0.0782863
935.805	0.0769098
935.939	0.0777701
936.073	0.0784584
936.207	0.0815554
936.341	0.0777701
936.476	0.077254
936.61	0.0769098
936.744	0.077254
936.878	0.0782863
937.012	0.0769098
937.146	0.0794907
937.28	0.0782863
937.414	0.0753613
937.548	0.0769098
937.683	0.0786304
937.817	0.0757054
937.951	0.0779422
938.085	0.0777701
938.219	0.0769098
938.353	0.077426
938.487	0.0800069
938.621	0.077426
938.755	0.0789745
938.889	0.0784584
939.024	0.0794907
939.158	0.0770819
939.292	0.0770819
939.426	0.077254
939.56	0.0796628
939.694	0.0775981
939.828	0.0758775
939.962	0.0765657
940.096	0.077426
940.231	0.0793187
940.365	0.0798348
940.499	0.0765657
940.633	0.0781142
940.767	0.0788025
940.901	0.0775981
941.035	0.0789745
941.169	0.0760496
941.303	0.0786304
941.437	0.0775981
941.571	0.0796628
941.706	0.0784584
941.84	0.077426
941.974	0.0779422
942.108	0.0789745
942.242	0.0788025
942.376	0.0767378
942.51	0.0755334
942.644	0.0796628
942.778	0.0796628
942.912	0.0791466
943.047	0.0781142
943.181	0.0762216
943.315	0.0800069
943.449	0.0788025
943.583	0.0765657
943.717	0.0775981
943.851	0.0760496
943.985	0.0793187
944.119	0.0784584
944.253	0.077254
944.387	0.0765657
944.522	0.0781142
944.656	0.077254
944.79	0.0788025
944.924	0.0794907
945.058	0.0788025
945.192	0.0801789
945.326	0.0760496
945.46	0.0782863
945.594	0.0770819
945.728	0.0789745
945.862	0.077426
945.996	0.0769098
946.131	0.0812113
946.265	0.0812113
946.399	0.0775981
946.533	0.0800069
946.667	0.0796628
946.801	0.0769098
946.935	0.0784584
947.069	0.0767378
947.203	0.0782863
947.337	0.0793187
947.471	0.0769098
947.605	0.0784584
947.739	0.0793187
947.874	0.077426
948.008	0.0786304
948.142	0.0786304
948.276	0.0786304
948.41	0.0777701
948.544	0.0767378
948.678	0.0767378
948.812	0.0782863
948.946	0.0770819
949.08	0.0782863
949.214	0.0782863
949.348	0.0789745
949.482	0.0788025
949.617	0.077254
949.751	0.0779422
949.885	0.0779422
950.019	0.0794907
950.153	0.0800069
950.287	0.0775981
950.421	0.0789745
950.555	0.0777701
950.689	0.080351
950.823	0.0765657
950.957	0.0779422
951.091	0.0775981
951.225	0.0788025
951.359	0.0769098
951.493	0.0765657
951.628	0.074501
951.762	0.0770819
951.896	0.0815554
952.03	0.0789745
952.164	0.077426
952.298	0.0763937
952.432	0.0789745
952.566	0.0746731
952.7	0.0801789
952.834	0.0806951
952.968	0.0769098
953.102	0.0805231
953.236	0.0784584
953.37	0.0793187
953.504	0.0794907
953.639	0.0779422
953.773	0.0769098
953.907	0.0751893
954.041	0.0777701
954.175	0.0793187
954.309	0.0767378
954.443	0.0765657
954.577	0.0808672
954.711	0.077426
954.845	0.0769098
954.979	0.0794907
955.113	0.0767378
955.247	0.0777701
955.381	0.0775981
955.515	0.0784584
955.649	0.0732966
955.783	0.0789745
955.917	0.0786304
956.052	0.0770819
956.186	0.0789745
956.32	0.077254
956.454	0.0757054
956.588	0.0791466
956.722	0.0777701
956.856	0.0786304
956.99	0.0800069
957.124	0.0757054
957.258	0.0779422
957.392	0.0781142
957.526	0.0767378
957.66	0.0789745
957.794	0.0762216
957.928	0.0775981
958.062	0.0781142
958.196	0.0781142
958.33	0.0796628
958.464	0.0769098
958.598	0.0763937
958.733	0.0767378
958.867	0.077426
959.001	0.0760496
959.135	0.0769098
959.269	0.0789745
959.403	0.0767378
959.537	0.0793187
959.671	0.0782863
959.805	0.077254
959.939	0.0758775
960.073	0.0758775
960.207	0.077426
960.341	0.077254
960.475	0.0770819
960.609	0.0775981
960.743	0.0788025
960.877	0.0801789
961.011	0.0777701
961.145	0.0763937
961.279	0.0794907
961.413	0.0753613
961.547	0.0781142
961.681	0.074501
961.815	0.0779422
961.949	0.0779422
962.083	0.0798348
962.218	0.0770819
962.352	0.0784584
962.486	0.0769098
962.62	0.077426
962.754	0.0782863
962.888	0.0791466
963.022	0.0784584
963.156	0.0788025
963.29	0.0789745
963.424	0.0757054
963.558	0.077426
963.692	0.0751893
963.826	0.0784584
963.96	0.0796628
964.094	0.0782863
964.228	0.0815554
964.362	0.0775981
964.496	0.0791466
964.63	0.0775981
964.764	0.0765657
964.898	0.077254
965.032	0.0765657
965.166	0.0796628
965.3	0.0760496
965.434	0.0775981
965.568	0.0812113
965.702	0.0779422
965.836	0.0784584
965.97	0.0770819
966.104	0.0793187
966.238	0.0775981
966.372	0.0770819
966.506	0.0784584
966.64	0.0786304
966.774	0.0769098
966.908	0.077426
967.043	0.0786304
967.177	0.0796628
967.311	0.0770819
967.445	0.077426
967.579	0.0767378
967.713	0.0770819
967.847	0.0763937
967.981	0.0801789
968.115	0.0801789
968.249	0.0775981
968.383	0.0788025
968.517	0.0775981
968.651	0.0765657
968.785	0.0765657
968.919	0.0784584
969.053	0.074501
969.187	0.0781142
969.321	0.0788025
969.455	0.0798348
969.589	0.0782863
969.723	0.0794907
969.857	0.0779422
969.991	0.0782863
970.125	0.0753613
970.259	0.0794907
970.393	0.0781142
970.527	0.0758775
970.661	0.0796628
970.795	0.0782863
970.929	0.0760496
971.063	0.0782863
971.197	0.0784584
971.331	0.0784584
971.465	0.0775981
971.599	0.0755334
971.733	0.0794907
971.867	0.0765657
972.001	0.0796628
972.135	0.077426
972.269	0.0758775
972.403	0.0796628
972.537	0.0798348
972.671	0.0770819
972.805	0.0763937
972.939	0.0794907
973.073	0.0786304
973.207	0.0779422
973.341	0.077426
973.475	0.0805231
973.609	0.0786304
973.743	0.0796628
973.877	0.0781142
974.011	0.0775981
974.145	0.0765657
974.279	0.0758775
974.413	0.0786304
974.547	0.0762216
974.681	0.0775981
974.815	0.0810392
974.949	0.0781142
975.083	0.0767378
975.217	0.0763937
975.351	0.0775981
975.485	0.0789745
975.619	0.0786304
975.753	0.0810392
975.887	0.077254
976.021	0.0763937
976.155	0.0786304
976.289	0.0781142
976.423	0.0753613
976.557	0.0801789
976.691	0.077426
976.825	0.0793187
976.959	0.0770819
977.093	0.077426
977.227	0.0788025
977.361	0.0763937
977.495	0.0770819
977.629	0.0763937
977.763	0.0779422
977.897	0.0775981
978.031	0.077426
978.165	0.0784584
978.299	0.0758775
978.433	0.0767378
978.567	0.0767378
978.701	0.077426
978.835	0.077426
978.969	0.077426
979.103	0.0779422
979.237	0.0786304
979.371	0.0765657
979.505	0.0770819
979.639	0.0781142
979.773	0.0781142
979.907	0.0775981
980.041	0.0775981
980.175	0.0779422
980.308	0.074329
980.442	0.0781142
980.576	0.080351
980.71	0.0801789
980.844	0.0789745
980.978	0.0765657
981.112	0.0796628
981.246	0.0796628
981.38	0.077426
981.514	0.0775981
981.648	0.0777701
981.782	0.0775981
981.916	0.0781142
982.05	0.0801789
982.184	0.0784584
982.318	0.0777701
982.452	0.0767378
982.586	0.0784584
982.72	0.0788025
982.854	0.0793187
982.988	0.0777701
983.122	0.0777701
983.256	0.0789745
983.39	0.0793187
983.524	0.0788025
983.658	0.0757054
983.792	0.0769098
983.926	0.0786304
984.06	0.0777701
984.194	0.0794907
984.328	0.080351
984.462	0.0810392
984.596	0.0755334
984.73	0.0760496
984.864	0.0788025
984.998	0.0808672
985.132	0.0788025
985.265	0.0779422
985.399	0.0782863
985.533	0.0779422
985.667	0.0757054
985.801	0.0777701
985.935	0.080351
986.069	0.0765657
986.203	0.0753613
986.337	0.0800069
986.471	0.0753613
986.605	0.0813833
986.739	0.0770819
986.873	0.0789745
987.007	0.0765657
987.141	0.077426
987.275	0.0789745
987.409	0.0798348
987.543	0.0770819
987.677	0.0791466
987.811	0.0746731
987.945	0.0781142
988.079	0.0777701
988.213	0.077426
988.347	0.0793187
988.481	0.0751893
988.614	0.0782863
988.748	0.0781142
988.882	0.0779422
989.016	0.0781142
989.15	0.0796628
989.284	0.0765657
989.418	0.077426
989.552	0.0798348
989.686	0.0777701
989.82	0.0808672
989.954	0.0794907
990.088	0.0765657
990.222	0.0770819
990.356	0.0777701
990.49	0.0781142
990.624	0.0786304
990.758	0.0753613
990.892	0.0770819
991.026	0.077426
991.16	0.0782863
991.294	0.0793187
991.427	0.0753613
991.561	0.0779422
991.695	0.0770819
991.829	0.0794907
991.963	0.0789745
992.097	0.0788025
992.231	0.0760496
992.365	0.0788025
992.499	0.0779422
992.633	0.0784584
992.767	0.0777701
992.901	0.0739849
993.035	0.0782863
993.169	0.077426
993.303	0.0769098
993.437	0.0789745
993.571	0.0779422
993.704	0.0760496
993.838	0.0784584
993.972	0.0762216
994.106	0.0763937
994.24	0.0796628
994.374	0.0765657
994.508	0.080351
994.642	0.0763937
994.776	0.077426
994.91	0.0789745
995.044	0.0769098
995.178	0.077254
995.312	0.077254
995.446	0.0781142
995.58	0.0782863
995.714	0.0801789
995.847	0.0777701
995.981	0.0755334
996.115	0.0789745
996.249	0.077426
996.383	0.077254
996.517	0.0775981
996.651	0.0791466
996.785	0.0800069
996.919	0.0789745
997.053	0.077254
997.187	0.0775981
997.321	0.0791466
997.455	0.0788025
997.589	0.0760496
997.722	0.0791466
997.856	0.0765657
997.99	0.0781142
998.124	0.0791466
998.258	0.077426
998.392	0.077426
998.526	0.077254
998.66	0.0794907
998.794	0.0777701
998.928	0.0788025
999.062	0.0762216
999.196	0.0758775
999.33	0.0770819
999.464	0.0770819
999.597	0.0789745
999.731	0.0757054
999.865	0.0781142
999.999	0.0788025
1000.13	0.0782863
1000.27	0.0763937
1000.4	0.0788025
1000.53	0.0767378
1000.67	0.0765657
1000.8	0.0781142
1000.94	0.0781142
1001.07	0.0767378
1001.2	0.0794907
1001.34	0.0777701
1001.47	0.0770819
1001.61	0.0796628
1001.74	0.0775981
1001.87	0.0791466
1002.01	0.0757054
1002.14	0.0779422
1002.28	0.0786304
1002.41	0.0775981
1002.54	0.0770819
1002.68	0.0769098
1002.81	0.0798348
1002.95	0.0769098
1003.08	0.0784584
1003.21	0.0755334
1003.35	0.0786304
1003.48	0.074329
1003.61	0.0789745
1003.75	0.0767378
1003.88	0.0794907
1004.02	0.0758775
1004.15	0.0801789
1004.28	0.077426
1004.42	0.0801789
1004.55	0.0746731
1004.69	0.0755334
1004.82	0.0788025
1004.95	0.077426
1005.09	0.0789745
1005.22	0.0779422
1005.36	0.0775981
1005.49	0.0793187
1005.62	0.077426
1005.76	0.0789745
1005.89	0.0748451
1006.03	0.077426
1006.16	0.0763937
1006.29	0.0800069
1006.43	0.0767378
1006.56	0.0769098
1006.69	0.0784584
1006.83	0.0767378
1006.96	0.077426
1007.1	0.0775981
1007.23	0.0796628
1007.36	0.074501
1007.5	0.077254
1007.63	0.0796628
1007.77	0.077254
1007.9	0.0782863
1008.03	0.0798348
1008.17	0.0793187
1008.3	0.0788025
1008.44	0.0765657
1008.57	0.077254
1008.7	0.0767378
1008.84	0.0789745
1008.97	0.0777701
1009.1	0.0781142
1009.24	0.0786304
1009.37	0.077426
1009.51	0.0767378
1009.64	0.0781142
1009.77	0.0775981
1009.91	0.0777701
1010.04	0.0781142
1010.18	0.0770819
1010.31	0.0791466
1010.44	0.0786304
1010.58	0.0791466
1010.71	0.0784584
1010.85	0.077426
1010.98	0.077254
1011.11	0.0781142
1011.25	0.0788025
1011.38	0.0793187
1011.51	0.0813833
1011.65	0.0765657
1011.78	0.0782863
1011.92	0.0786304
1012.05	0.0769098
1012.18	0.0788025
1012.32	0.0770819
1012.45	0.0805231
1012.59	0.0777701
1012.72	0.0760496
1012.85	0.0782863
1012.99	0.0779422
1013.12	0.0782863
1013.26	0.0779422
1013.39	0.077426
1013.52	0.0777701
1013.66	0.0767378
1013.79	0.080351
1013.92	0.0770819
1014.06	0.0777701
1014.19	0.0760496
1014.33	0.0789745
1014.46	0.0781142
1014.59	0.077426
1014.73	0.0775981
1014.86	0.0775981
1015	0.0794907
1015.13	0.0788025
1015.26	0.0775981
1015.4	0.0770819
1015.53	0.0757054
1015.67	0.0781142
1015.8	0.0762216
1015.93	0.0782863
1016.07	0.0779422
1016.2	0.0782863
1016.33	0.0770819
1016.47	0.0782863
1016.6	0.0757054
1016.74	0.0801789
1016.87	0.0760496
1017	0.0791466
1017.14	0.077426
1017.27	0.0775981
1017.41	0.0784584
1017.54	0.0788025
1017.67	0.0800069
1017.81	0.0760496
1017.94	0.0767378
1018.07	0.0767378
1018.21	0.077254
1018.34	0.0777701
1018.48	0.0779422
1018.61	0.074501
1018.74	0.0788025
1018.88	0.0779422
1019.01	0.0791466
1019.15	0.0762216
1019.28	0.0757054
1019.41	0.0781142
1019.55	0.0767378
1019.68	0.0770819
1019.82	0.077426
1019.95	0.0779422
1020.08	0.0788025
1020.22	0.0775981
1020.35	0.0782863
1020.48	0.0786304
1020.62	0.0788025
1020.75	0.0769098
1020.89	0.077254
1021.02	0.0793187
1021.15	0.0789745
1021.29	0.0769098
1021.42	0.077426
1021.56	0.0800069
1021.69	0.0765657
1021.82	0.077426
1021.96	0.0769098
1022.09	0.0794907
1022.22	0.0751893
1022.36	0.0775981
1022.49	0.0763937
1022.63	0.0755334
1022.76	0.0775981
1022.89	0.0784584
1023.03	0.0755334
1023.16	0.0791466
1023.3	0.0789745
1023.43	0.0789745
1023.56	0.0800069
1023.7	0.0794907
1023.83	0.0769098
1023.96	0.0770819
1024.1	0.0779422
1024.23	0.0767378
1024.37	0.0760496
1024.5	0.0781142
1024.63	0.0779422
1024.77	0.0777701
1024.9	0.077426
1025.04	0.080351
1025.17	0.0781142
1025.3	0.0786304
1025.44	0.0769098
1025.57	0.0786304
1025.7	0.077254
1025.84	0.0763937
1025.97	0.0769098
1026.11	0.0781142
1026.24	0.0757054
1026.37	0.0784584
1026.51	0.0762216
1026.64	0.0762216
1026.78	0.0782863
1026.91	0.077426
1027.04	0.0775981
1027.18	0.0784584
1027.31	0.0786304
1027.44	0.0798348
1027.58	0.077254
1027.71	0.0765657
1027.85	0.0788025
1027.98	0.080351
1028.11	0.077426
1028.25	0.0782863
1028.38	0.0767378
1028.52	0.0798348
1028.65	0.074329
1028.78	0.0781142
1028.92	0.0765657
1029.05	0.0755334
1029.18	0.0796628
1029.32	0.0794907
1029.45	0.077426
1029.59	0.0758775
1029.72	0.0781142
1029.85	0.077426
1029.99	0.0789745
1030.12	0.077426
1030.26	0.0777701
1030.39	0.0765657
1030.52	0.0781142
1030.66	0.0789745
1030.79	0.074329
1030.92	0.0775981
1031.06	0.0777701
1031.19	0.0798348
1031.33	0.0757054
1031.46	0.0751893
1031.59	0.0788025
1031.73	0.077254
1031.86	0.0765657
1031.99	0.0781142
1032.13	0.0788025
1032.26	0.0777701
1032.4	0.0775981
1032.53	0.0777701
1032.66	0.077254
1032.8	0.0782863
1032.93	0.0796628
1033.07	0.0782863
1033.2	0.0794907
1033.33	0.0757054
1033.47	0.0779422
1033.6	0.0782863
1033.73	0.0786304
1033.87	0.0775981
1034	0.0769098
1034.14	0.0760496
1034.27	0.0777701
1034.4	0.0784584
1034.54	0.077426
1034.67	0.0801789
1034.81	0.0789745
1034.94	0.0784584
1035.07	0.0793187
1035.21	0.0779422
1035.34	0.0789745
1035.47	0.0798348
1035.61	0.0760496
1035.74	0.0793187
1035.88	0.0763937
1036.01	0.0777701
1036.14	0.0765657
1036.28	0.0782863
1036.41	0.077254
1036.54	0.080351
1036.68	0.0781142
1036.81	0.0762216
1036.95	0.0770819
1037.08	0.0794907
1037.21	0.0782863
1037.35	0.0770819
1037.48	0.0782863
1037.62	0.0777701
1037.75	0.0779422
1037.88	0.0784584
1038.02	0.0775981
1038.15	0.0791466
1038.28	0.0779422
1038.42	0.0788025
1038.55	0.077254
1038.69	0.0786304
1038.82	0.0770819
1038.95	0.0770819
1039.09	0.077426
1039.22	0.0789745
1039.35	0.0770819
1039.49	0.077426
1039.62	0.0750172
1039.76	0.0788025
1039.89	0.0798348
1040.02	0.0770819
1040.16	0.077426
1040.29	0.0775981
1040.43	0.0769098
1040.56	0.0777701
1040.69	0.0788025
1040.83	0.0775981
1040.96	0.0765657
1041.09	0.0779422
1041.23	0.0770819
1041.36	0.0760496
1041.5	0.0801789
1041.63	0.0769098
1041.76	0.0775981
1041.9	0.0810392
1042.03	0.0796628
1042.16	0.0777701
1042.3	0.077426
1042.43	0.0757054
1042.57	0.077254
1042.7	0.0788025
1042.83	0.0791466
1042.97	0.0760496
1043.1	0.0782863
1043.23	0.0758775
1043.37	0.0767378
1043.5	0.0786304
1043.64	0.0784584
1043.77	0.0760496
1043.9	0.0779422
1044.04	0.0788025
1044.17	0.0796628
1044.31	0.0777701
1044.44	0.077254
1044.57	0.0786304
1044.71	0.0781142
1044.84	0.0767378
1044.97	0.077254
1045.11	0.0786304
1045.24	0.0793187
1045.38	0.0779422
1045.51	0.0800069
1045.64	0.0763937
1045.78	0.0791466
1045.91	0.080351
1046.04	0.0753613
1046.18	0.0794907
1046.31	0.0788025
1046.45	0.0781142
1046.58	0.0765657
1046.71	0.0789745
1046.85	0.0763937
1046.98	0.0794907
1047.11	0.0791466
1047.25	0.0782863
1047.38	0.0767378
1047.52	0.0767378
1047.65	0.0760496
1047.78	0.0788025
1047.92	0.0770819
1048.05	0.0796628
1048.18	0.0779422
1048.32	0.0753613
1048.45	0.0769098
1048.59	0.0788025
1048.72	0.0782863
1048.85	0.077426
1048.99	0.0782863
1049.12	0.077426
1049.25	0.0779422
1049.39	0.0791466
1049.52	0.0770819
1049.66	0.0788025
1049.79	0.0789745
1049.92	0.0762216
1050.06	0.0800069
1050.19	0.0805231
1050.33	0.0786304
1050.46	0.0793187
1050.59	0.0767378
1050.73	0.0793187
1050.86	0.077426
1050.99	0.0755334
1051.13	0.0782863
1051.26	0.077426
1051.4	0.0813833
1051.53	0.0769098
1051.66	0.0789745
1051.8	0.0777701
1051.93	0.0769098
1052.06	0.077426
1052.2	0.0789745
1052.33	0.0769098
1052.47	0.0757054
1052.6	0.0786304
1052.73	0.0757054
1052.87	0.0757054
1053	0.0769098
1053.13	0.0782863
1053.27	0.0775981
1053.4	0.0775981
1053.54	0.0763937
1053.67	0.0765657
1053.8	0.0779422
1053.94	0.0791466
1054.07	0.0763937
1054.2	0.0760496
1054.34	0.0767378
1054.47	0.0789745
1054.61	0.0760496
1054.74	0.0758775
1054.87	0.0779422
1055.01	0.0788025
1055.14	0.0789745
1055.27	0.0775981
1055.41	0.0781142
1055.54	0.0777701
1055.68	0.077426
1055.81	0.077254
1055.94	0.0753613
1056.08	0.0800069
1056.21	0.0784584
1056.34	0.0789745
1056.48	0.0770819
1056.61	0.0786304
1056.75	0.0784584
1056.88	0.0781142
1057.01	0.0765657
1057.15	0.0794907
1057.28	0.0788025
1057.41	0.0782863
1057.55	0.0777701
1057.68	0.0786304
1057.82	0.0760496
1057.95	0.0789745
1058.08	0.0810392
1058.22	0.0786304
1058.35	0.0791466
1058.48	0.0786304
1058.62	0.0789745
1058.75	0.077254
1058.89	0.0770819
1059.02	0.077254
1059.15	0.077254
1059.29	0.0781142
1059.42	0.077254
1059.55	0.0794907
1059.69	0.0782863
1059.82	0.077426
1059.96	0.0770819
1060.09	0.0805231
1060.22	0.0779422
1060.36	0.077254
1060.49	0.0762216
1060.62	0.0800069
1060.76	0.0777701
1060.89	0.0755334
1061.03	0.0746731
1061.16	0.0788025
1061.29	0.0769098
1061.43	0.0777701
1061.56	0.0788025
1061.69	0.0762216
1061.83	0.074329
1061.96	0.0788025
1062.1	0.0789745
1062.23	0.0791466
1062.36	0.0775981
1062.5	0.0796628
1062.63	0.0770819
1062.76	0.0781142
1062.9	0.0767378
1063.03	0.077254
1063.17	0.0784584
1063.3	0.0794907
1063.43	0.0786304
1063.57	0.0777701
1063.7	0.0789745
1063.83	0.077254
1063.97	0.0801789
1064.1	0.074329
1064.23	0.0779422
1064.37	0.0770819
1064.5	0.0781142
1064.64	0.0794907
1064.77	0.0781142
1064.9	0.0781142
1065.04	0.0793187
1065.17	0.0770819
1065.3	0.0786304
1065.44	0.0800069
1065.57	0.0784584
1065.71	0.0767378
1065.84	0.0781142
1065.97	0.0791466
1066.11	0.0770819
1066.24	0.0782863
1066.37	0.0760496
1066.51	0.0793187
1066.64	0.0781142
1066.78	0.077254
1066.91	0.0777701
1067.04	0.0810392
1067.18	0.0781142
1067.31	0.0782863
1067.44	0.0789745
1067.58	0.0793187
1067.71	0.077254
1067.85	0.0781142
1067.98	0.0770819
1068.11	0.0801789
1068.25	0.0796628
1068.38	0.0769098
1068.51	0.0775981
1068.65	0.0796628
1068.78	0.077426
1068.92	0.0788025
1069.05	0.0777701
1069.18	0.0786304
1069.32	0.0796628
1069.45	0.0781142
1069.58	0.0800069
1069.72	0.0777701
1069.85	0.0767378
1069.98	0.0775981
1070.12	0.0806951
1070.25	0.077254
1070.39	0.0779422
1070.52	0.0758775
1070.65	0.0763937
1070.79	0.0763937
1070.92	0.0762216
1071.05	0.0781142
1071.19	0.0763937
1071.32	0.0781142
1071.46	0.0763937
1071.59	0.0777701
1071.72	0.0775981
1071.86	0.0781142
1071.99	0.0791466
1072.12	0.0788025
1072.26	0.0788025
1072.39	0.0779422
1072.53	0.0815554
1072.66	0.0762216
1072.79	0.0760496
1072.93	0.0791466
1073.06	0.0770819
1073.19	0.0793187
1073.33	0.0765657
1073.46	0.0784584
1073.59	0.0779422
1073.73	0.0769098
1073.86	0.0767378
1074	0.0779422
1074.13	0.0788025
1074.26	0.0770819
1074.4	0.0781142
1074.53	0.0793187
1074.66	0.077426
1074.8	0.077426
1074.93	0.0781142
1075.07	0.0760496
1075.2	0.0806951
1075.33	0.0763937
1075.47	0.077426
1075.6	0.0781142
1075.73	0.0781142
1075.87	0.0760496
1076	0.0750172
1076.14	0.0765657
1076.27	0.0775981
1076.4	0.0782863
1076.54	0.0791466
1076.67	0.0794907
1076.8	0.0786304
1076.94	0.0793187
1077.07	0.0775981
1077.2	0.0769098
1077.34	0.077254
1077.47	0.0789745
1077.61	0.0775981
1077.74	0.0779422
1077.87	0.077426
1078.01	0.0791466
1078.14	0.0777701
1078.27	0.0770819
1078.41	0.0791466
1078.54	0.0779422
1078.68	0.0789745
1078.81	0.0781142
1078.94	0.0765657
1079.08	0.0770819
1079.21	0.0763937
1079.34	0.0791466
1079.48	0.0748451
1079.61	0.0789745
1079.74	0.0762216
1079.88	0.0775981
1080.01	0.0732966
1080.15	0.077254
1080.28	0.0777701
1080.41	0.077254
1080.55	0.0784584
1080.68	0.0784584
1080.81	0.0782863
1080.95	0.0779422
1081.08	0.0789745
1081.22	0.0777701
1081.35	0.077254
1081.48	0.0758775
1081.62	0.0794907
1081.75	0.0784584
1081.88	0.0800069
1082.02	0.0782863
1082.15	0.0798348
1082.28	0.0791466
1082.42	0.0788025
1082.55	0.0757054
1082.69	0.0782863
1082.82	0.0770819
1082.95	0.0789745
1083.09	0.0770819
1083.22	0.0775981
1083.35	0.0788025
1083.49	0.077426
1083.62	0.0784584
1083.75	0.0789745
1083.89	0.0788025
1084.02	0.0779422
1084.16	0.0794907
1084.29	0.0762216
1084.42	0.0770819
1084.56	0.0801789
1084.69	0.0758775
1084.82	0.0794907
1084.96	0.0782863
1085.09	0.0775981
1085.23	0.0791466
1085.36	0.0796628
1085.49	0.0763937
1085.63	0.0762216
1085.76	0.0770819
1085.89	0.0789745
1086.03	0.0777701
1086.16	0.0791466
1086.29	0.0789745
1086.43	0.0777701
1086.56	0.0788025
1086.7	0.0750172
1086.83	0.0786304
1086.96	0.0775981
1087.1	0.0782863
1087.23	0.0770819
1087.36	0.077426
1087.5	0.0765657
1087.63	0.0758775
1087.76	0.0763937
1087.9	0.077254
1088.03	0.0767378
1088.17	0.0784584
1088.3	0.0760496
1088.43	0.077254
1088.57	0.0779422
1088.7	0.077426
1088.83	0.0769098
1088.97	0.0796628
1089.1	0.0796628
1089.24	0.0767378
1089.37	0.0784584
1089.5	0.077426
1089.64	0.0786304
1089.77	0.0775981
1089.9	0.0786304
1090.04	0.0767378
1090.17	0.0765657
1090.3	0.0777701
1090.44	0.0755334
1090.57	0.0784584
1090.71	0.0758775
1090.84	0.0796628
1090.97	0.0777701
1091.11	0.0798348
1091.24	0.0767378
1091.37	0.080351
1091.51	0.0757054
1091.64	0.0779422
1091.77	0.0791466
1091.91	0.077254
1092.04	0.0762216
1092.18	0.0779422
1092.31	0.0789745
1092.44	0.0794907
1092.58	0.0767378
1092.71	0.0788025
1092.84	0.0750172
1092.98	0.0805231
1093.11	0.0784584
1093.24	0.0781142
1093.38	0.0775981
1093.51	0.0786304
1093.65	0.0769098
1093.78	0.0786304
1093.91	0.0775981
1094.05	0.0789745
1094.18	0.0781142
1094.31	0.0765657
1094.45	0.0796628
1094.58	0.077254
1094.71	0.0767378
1094.85	0.0786304
1094.98	0.0788025
1095.12	0.0763937
1095.25	0.0810392
1095.38	0.077254
1095.52	0.0782863
1095.65	0.0769098
1095.78	0.080351
1095.92	0.0770819
1096.05	0.074501
1096.18	0.0767378
1096.32	0.0784584
1096.45	0.077426
1096.59	0.077254
1096.72	0.077254
1096.85	0.0775981
1096.99	0.0775981
1097.12	0.0788025
1097.25	0.0753613
1097.39	0.0760496
1097.52	0.0781142
1097.65	0.0796628
1097.79	0.077426
1097.92	0.0788025
1098.06	0.0775981
1098.19	0.0781142
1098.32	0.0789745
1098.46	0.0758775
1098.59	0.0786304
1098.72	0.080351
1098.86	0.0765657
1098.99	0.0763937
1099.12	0.0782863
1099.26	0.0784584
1099.39	0.0782863
1099.53	0.0788025
1099.66	0.0784584
1099.79	0.0758775
1099.93	0.0782863
1100.06	0.0763937
1100.19	0.0791466
1100.33	0.0765657
1100.46	0.0775981
1100.59	0.0784584
1100.73	0.0791466
1100.86	0.0784584
1100.99	0.0791466
1101.13	0.0777701
1101.26	0.0806951
1101.4	0.0794907
1101.53	0.0788025
1101.66	0.0781142
1101.8	0.0767378
1101.93	0.0801789
1102.06	0.0770819
1102.2	0.0760496
1102.33	0.0788025
1102.46	0.0765657
1102.6	0.0777701
1102.73	0.0777701
1102.87	0.077426
1103	0.0781142
1103.13	0.0777701
1103.27	0.0786304
1103.4	0.0777701
1103.53	0.0781142
1103.67	0.077426
1103.8	0.0789745
1103.93	0.077426
1104.07	0.0793187
1104.2	0.0769098
1104.34	0.0786304
1104.47	0.0777701
1104.6	0.0786304
1104.74	0.0779422
1104.87	0.0762216
1105	0.0794907
1105.14	0.0786304
1105.27	0.0782863
1105.4	0.0753613
1105.54	0.0812113
1105.67	0.0770819
1105.8	0.0767378
1105.94	0.0763937
1106.07	0.0789745
1106.21	0.077426
1106.34	0.077426
1106.47	0.0782863
1106.61	0.0786304
1106.74	0.0794907
1106.87	0.0765657
1107.01	0.077426
1107.14	0.0788025
1107.27	0.077426
1107.41	0.0791466
1107.54	0.0777701

