Source: Spectrum Viewer

Chart: Pulse Spectrum

Series: 
Wavelength (nm)	S (a.u.)
617.638	0.0544088
617.773	0.052977
617.908	0.0536929
618.043	0.052977
618.178	0.0553633
618.313	0.0524997
618.448	0.0539315
618.583	0.0541701
618.718	0.0532156
618.853	0.0547667
618.988	0.0547667
619.123	0.0541701
619.258	0.0533349
619.394	0.0530963
619.529	0.0536929
619.664	0.0536929
619.799	0.0546474
619.934	0.0532156
620.069	0.0553633
620.204	0.0546474
620.339	0.055602
620.474	0.0548861
620.609	0.0559599
620.744	0.0522611
620.879	0.0545281
621.014	0.0540508
621.149	0.0538122
621.284	0.0523804
621.419	0.0547667
621.554	0.0533349
621.689	0.0544088
621.825	0.0534542
621.96	0.0532156
622.095	0.0540508
622.23	0.0542895
622.365	0.0528577
622.5	0.0541701
622.635	0.0530963
622.77	0.0541701
622.905	0.0530963
623.04	0.0547667
623.175	0.0545281
623.31	0.0540508
623.445	0.0545281
623.58	0.0533349
623.715	0.0559599
623.85	0.0541701
623.985	0.0541701
624.12	0.0528577
624.255	0.0522611
624.39	0.0541701
624.525	0.0547667
624.661	0.0547667
624.796	0.0541701
624.931	0.0528577
625.066	0.0557213
625.201	0.0545281
625.336	0.0532156
625.471	0.0534542
625.606	0.0536929
625.741	0.0536929
625.876	0.0533349
626.011	0.0538122
626.146	0.0533349
626.281	0.0553633
626.416	0.0539315
626.551	0.0550054
626.686	0.0541701
626.821	0.0536929
626.956	0.0548861
627.091	0.0530963
627.226	0.0535736
627.361	0.055602
627.496	0.052977
627.631	0.0553633
627.766	0.0539315
627.901	0.0534542
628.036	0.0546474
628.171	0.0528577
628.307	0.0545281
628.442	0.0538122
628.577	0.0536929
628.712	0.0527383
628.847	0.0534542
628.982	0.0520224
629.117	0.0516645
629.252	0.0527383
629.387	0.0527383
629.522	0.0551247
629.657	0.0532156
629.792	0.0528577
629.927	0.0532156
630.062	0.0527383
630.197	0.052977
630.332	0.0533349
630.467	0.0548861
630.602	0.0545281
630.737	0.0535736
630.872	0.0524997
631.007	0.0540508
631.142	0.0561985
631.277	0.052619
631.412	0.0538122
631.547	0.0540508
631.682	0.0547667
631.817	0.0540508
631.952	0.0535736
632.087	0.0550054
632.222	0.0546474
632.357	0.052619
632.492	0.052977
632.627	0.0534542
632.762	0.0532156
632.897	0.0551247
633.032	0.0516645
633.167	0.0540508
633.302	0.0535736
633.437	0.0536929
633.572	0.0540508
633.707	0.055602
633.842	0.0530963
633.978	0.0534542
634.113	0.0535736
634.248	0.0540508
634.383	0.0541701
634.518	0.0530963
634.653	0.0535736
634.788	0.0527383
634.923	0.0528577
635.058	0.0533349
635.193	0.0539315
635.328	0.0524997
635.463	0.0532156
635.598	0.0533349
635.733	0.0544088
635.868	0.0557213
636.003	0.0536929
636.138	0.0536929
636.273	0.0530963
636.408	0.0539315
636.543	0.0530963
636.678	0.0536929
636.813	0.052977
636.948	0.0535736
637.083	0.0539315
637.218	0.0559599
637.353	0.0534542
637.488	0.0527383
637.623	0.0538122
637.758	0.0540508
637.893	0.0548861
638.028	0.0545281
638.163	0.0542895
638.298	0.0547667
638.433	0.0536929
638.568	0.0532156
638.703	0.0538122
638.838	0.0532156
638.973	0.0539315
639.108	0.0541701
639.243	0.0551247
639.378	0.0523804
639.513	0.0535736
639.648	0.0530963
639.783	0.0539315
639.918	0.0527383
640.053	0.0557213
640.188	0.0553633
640.323	0.0541701
640.458	0.0534542
640.593	0.0550054
640.728	0.0539315
640.863	0.0551247
640.998	0.0546474
641.133	0.0545281
641.268	0.0532156
641.403	0.0548861
641.538	0.0538122
641.673	0.0541701
641.808	0.0550054
641.943	0.0535736
642.078	0.0532156
642.213	0.0547667
642.348	0.0539315
642.483	0.0540508
642.618	0.0548861
642.753	0.0534542
642.888	0.0528577
643.023	0.0553633
643.158	0.0530963
643.293	0.0551247
643.428	0.0540508
643.563	0.0544088
643.698	0.0546474
643.833	0.0524997
643.968	0.0534542
644.103	0.0534542
644.237	0.0530963
644.372	0.0540508
644.507	0.0532156
644.642	0.0553633
644.777	0.0545281
644.912	0.0544088
645.047	0.0538122
645.182	0.0535736
645.317	0.0532156
645.452	0.052619
645.587	0.0542895
645.722	0.0530963
645.857	0.0557213
645.992	0.0532156
646.127	0.0540508
646.262	0.0534542
646.397	0.055244
646.532	0.0541701
646.667	0.0536929
646.802	0.0528577
646.937	0.0536929
647.072	0.0542895
647.207	0.0553633
647.342	0.0558406
647.477	0.0540508
647.612	0.0546474
647.747	0.0551247
647.882	0.0530963
648.017	0.052977
648.152	0.052619
648.287	0.0551247
648.422	0.0541701
648.557	0.0548861
648.692	0.0533349
648.827	0.0539315
648.962	0.0547667
649.097	0.0544088
649.232	0.0545281
649.367	0.0551247
649.502	0.0539315
649.637	0.0538122
649.772	0.0532156
649.906	0.052977
650.041	0.0539315
650.176	0.0546474
650.311	0.0545281
650.446	0.0535736
650.581	0.0539315
650.716	0.0540508
650.851	0.0551247
650.986	0.0546474
651.121	0.0535736
651.256	0.0550054
651.391	0.0536929
651.526	0.0527383
651.661	0.0542895
651.796	0.0517838
651.931	0.0553633
652.066	0.0544088
652.201	0.0544088
652.336	0.052619
652.471	0.0557213
652.606	0.0538122
652.741	0.0561985
652.876	0.0530963
653.011	0.0524997
653.146	0.0545281
653.281	0.0535736
653.415	0.0553633
653.55	0.0536929
653.685	0.0539315
653.82	0.0547667
653.955	0.0554826
654.09	0.0559599
654.225	0.0548861
654.36	0.0545281
654.495	0.0535736
654.63	0.0539315
654.765	0.0541701
654.9	0.0524997
655.035	0.0538122
655.17	0.052619
655.305	0.0551247
655.44	0.0516645
655.575	0.0547667
655.71	0.055602
655.845	0.0544088
655.98	0.0545281
656.115	0.0534542
656.25	0.0538122
656.384	0.0542895
656.519	0.0542895
656.654	0.0534542
656.789	0.0545281
656.924	0.0516645
657.059	0.0540508
657.194	0.0538122
657.329	0.0551247
657.464	0.0542895
657.599	0.0511872
657.734	0.0532156
657.869	0.055602
658.004	0.0533349
658.139	0.0565565
658.274	0.0544088
658.409	0.0546474
658.544	0.0528577
658.679	0.0554826
658.813	0.0539315
658.948	0.0536929
659.083	0.0538122
659.218	0.0539315
659.353	0.055244
659.488	0.0542895
659.623	0.0539315
659.758	0.0540508
659.893	0.052977
660.028	0.0541701
660.163	0.0539315
660.298	0.0538122
660.433	0.0544088
660.568	0.0532156
660.703	0.0547667
660.838	0.0533349
660.972	0.0538122
661.107	0.0542895
661.242	0.0548861
661.377	0.055244
661.512	0.0559599
661.647	0.0542895
661.782	0.0544088
661.917	0.0553633
662.052	0.0544088
662.187	0.0542895
662.322	0.055602
662.457	0.0548861
662.592	0.0528577
662.727	0.0544088
662.862	0.0536929
662.996	0.0536929
663.131	0.0550054
663.266	0.0541701
663.401	0.0533349
663.536	0.0558406
663.671	0.0532156
663.806	0.0536929
663.941	0.0536929
664.076	0.0532156
664.211	0.0541701
664.346	0.0550054
664.481	0.052977
664.616	0.0527383
664.75	0.0524997
664.885	0.0548861
665.02	0.0551247
665.155	0.0540508
665.29	0.0550054
665.425	0.055602
665.56	0.0548861
665.695	0.0547667
665.83	0.0542895
665.965	0.0546474
666.1	0.0515452
666.235	0.0536929
666.37	0.0524997
666.504	0.0550054
666.639	0.0545281
666.774	0.0530963
666.909	0.0542895
667.044	0.0524997
667.179	0.0542895
667.314	0.0550054
667.449	0.0538122
667.584	0.0522611
667.719	0.0539315
667.854	0.0535736
667.989	0.0547667
668.123	0.0557213
668.258	0.0528577
668.393	0.0557213
668.528	0.0528577
668.663	0.0530963
668.798	0.052977
668.933	0.0548861
669.068	0.055602
669.203	0.0545281
669.338	0.052977
669.473	0.0561985
669.607	0.0553633
669.742	0.0535736
669.877	0.0522611
670.012	0.0532156
670.147	0.0523804
670.282	0.0541701
670.417	0.0544088
670.552	0.0547667
670.687	0.0542895
670.822	0.0545281
670.957	0.0527383
671.091	0.0559599
671.226	0.0559599
671.361	0.0538122
671.496	0.0528577
671.631	0.0533349
671.766	0.0527383
671.901	0.0539315
672.036	0.0553633
672.171	0.0548861
672.306	0.0541701
672.44	0.0539315
672.575	0.052619
672.71	0.0533349
672.845	0.0533349
672.98	0.0536929
673.115	0.0536929
673.25	0.0534542
673.385	0.0538122
673.52	0.0536929
673.655	0.0541701
673.789	0.0530963
673.924	0.0548861
674.059	0.0550054
674.194	0.0534542
674.329	0.0524997
674.464	0.0554826
674.599	0.0538122
674.734	0.0546474
674.869	0.0544088
675.003	0.0534542
675.138	0.0559599
675.273	0.0545281
675.408	0.0541701
675.543	0.0536929
675.678	0.0528577
675.813	0.0545281
675.948	0.0547667
676.083	0.0536929
676.217	0.0538122
676.352	0.0539315
676.487	0.0542895
676.622	0.052619
676.757	0.0530963
676.892	0.0546474
677.027	0.0546474
677.162	0.0542895
677.297	0.052977
677.431	0.0536929
677.566	0.0539315
677.701	0.0544088
677.836	0.0534542
677.971	0.0533349
678.106	0.0539315
678.241	0.0557213
678.376	0.0546474
678.511	0.0534542
678.645	0.0541701
678.78	0.0520224
678.915	0.0536929
679.05	0.0564372
679.185	0.0542895
679.32	0.0547667
679.455	0.0538122
679.59	0.0522611
679.724	0.0541701
679.859	0.0540508
679.994	0.0546474
680.129	0.0524997
680.264	0.0541701
680.399	0.0533349
680.534	0.0522611
680.669	0.0536929
680.803	0.0532156
680.938	0.0542895
681.073	0.0524997
681.208	0.0563179
681.343	0.0542895
681.478	0.055244
681.613	0.0527383
681.748	0.0541701
681.882	0.0546474
682.017	0.0538122
682.152	0.0538122
682.287	0.0544088
682.422	0.0546474
682.557	0.0535736
682.692	0.0554826
682.827	0.0533349
682.961	0.0530963
683.096	0.0538122
683.231	0.0530963
683.366	0.0542895
683.501	0.0527383
683.636	0.0528577
683.771	0.0540508
683.906	0.0533349
684.04	0.0533349
684.175	0.0545281
684.31	0.0540508
684.445	0.0533349
684.58	0.0541701
684.715	0.0545281
684.85	0.0542895
684.984	0.055244
685.119	0.0569144
685.254	0.0533349
685.389	0.0546474
685.524	0.0551247
685.659	0.0523804
685.794	0.0532156
685.928	0.0535736
686.063	0.0508293
686.198	0.0540508
686.333	0.0532156
686.468	0.0524997
686.603	0.0547667
686.738	0.0540508
686.872	0.0545281
687.007	0.0524997
687.142	0.0532156
687.277	0.0564372
687.412	0.0539315
687.547	0.055244
687.682	0.052977
687.816	0.052619
687.951	0.0534542
688.086	0.055602
688.221	0.0539315
688.356	0.0553633
688.491	0.0545281
688.626	0.0524997
688.76	0.052619
688.895	0.0535736
689.03	0.0535736
689.165	0.0528577
689.3	0.0545281
689.435	0.0550054
689.57	0.0544088
689.704	0.052619
689.839	0.0540508
689.974	0.0547667
690.109	0.0540508
690.244	0.0523804
690.379	0.0539315
690.513	0.0542895
690.648	0.0564372
690.783	0.0524997
690.918	0.0540508
691.053	0.0530963
691.188	0.0560792
691.323	0.0539315
691.457	0.0528577
691.592	0.0532156
691.727	0.055602
691.862	0.0554826
691.997	0.0530963
692.132	0.0558406
692.266	0.0540508
692.401	0.0546474
692.536	0.0530963
692.671	0.0551247
692.806	0.0540508
692.941	0.0536929
693.075	0.0535736
693.21	0.0544088
693.345	0.0536929
693.48	0.0536929
693.615	0.055244
693.75	0.0554826
693.885	0.0534542
694.019	0.0533349
694.154	0.052977
694.289	0.055602
694.424	0.052977
694.559	0.0553633
694.694	0.0544088
694.828	0.0557213
694.963	0.0538122
695.098	0.0545281
695.233	0.0523804
695.368	0.0532156
695.503	0.0528577
695.637	0.0546474
695.772	0.0545281
695.907	0.0546474
696.042	0.0534542
696.177	0.0536929
696.312	0.0551247
696.446	0.0535736
696.581	0.0517838
696.716	0.0558406
696.851	0.0539315
696.986	0.0533349
697.12	0.0533349
697.255	0.0540508
697.39	0.0528577
697.525	0.0545281
697.66	0.0542895
697.795	0.0541701
697.929	0.0541701
698.064	0.0551247
698.199	0.052977
698.334	0.0546474
698.469	0.0521417
698.604	0.0530963
698.738	0.0520224
698.873	0.0535736
699.008	0.0539315
699.143	0.0540508
699.278	0.0539315
699.412	0.0536929
699.547	0.0539315
699.682	0.0541701
699.817	0.0548861
699.952	0.0541701
700.087	0.0532156
700.221	0.0548861
700.356	0.0522611
700.491	0.0536929
700.626	0.0554826
700.761	0.0560792
700.895	0.0538122
701.03	0.0553633
701.165	0.0533349
701.3	0.0546474
701.435	0.0541701
701.57	0.0542895
701.704	0.0535736
701.839	0.0540508
701.974	0.0546474
702.109	0.0527383
702.244	0.0532156
702.378	0.0548861
702.513	0.0519031
702.648	0.0544088
702.783	0.0510679
702.918	0.0542895
703.052	0.0544088
703.187	0.0541701
703.322	0.0535736
703.457	0.0521417
703.592	0.0536929
703.727	0.0532156
703.861	0.0548861
703.996	0.0540508
704.131	0.0544088
704.266	0.0559599
704.401	0.0541701
704.535	0.0544088
704.67	0.0538122
704.805	0.0559599
704.94	0.0520224
705.075	0.0553633
705.209	0.0567951
705.344	0.0524997
705.479	0.0534542
705.614	0.0551247
705.749	0.0538122
705.883	0.0538122
706.018	0.0538122
706.153	0.0536929
706.288	0.0534542
706.423	0.0534542
706.557	0.0540508
706.692	0.0540508
706.827	0.0550054
706.962	0.0527383
707.097	0.0523804
707.231	0.0551247
707.366	0.0534542
707.501	0.052619
707.636	0.0540508
707.771	0.0541701
707.905	0.0533349
708.04	0.0536929
708.175	0.052619
708.31	0.0550054
708.445	0.0534542
708.579	0.0546474
708.714	0.0550054
708.849	0.0547667
708.984	0.0551247
709.118	0.0534542
709.253	0.0532156
709.388	0.0522611
709.523	0.0540508
709.658	0.0550054
709.792	0.052977
709.927	0.0530963
710.062	0.0541701
710.197	0.0544088
710.332	0.0532156
710.466	0.0533349
710.601	0.0544088
710.736	0.0540508
710.871	0.0544088
711.006	0.0534542
711.14	0.0527383
711.275	0.0548861
711.41	0.0539315
711.545	0.0538122
711.679	0.0536929
711.814	0.0530963
711.949	0.0551247
712.084	0.0553633
712.219	0.0516645
712.353	0.052977
712.488	0.0530963
712.623	0.0536929
712.758	0.0533349
712.892	0.0536929
713.027	0.0536929
713.162	0.0547667
713.297	0.0542895
713.432	0.0535736
713.566	0.0546474
713.701	0.0528577
713.836	0.0528577
713.971	0.0534542
714.105	0.0544088
714.24	0.0545281
714.375	0.055244
714.51	0.055244
714.645	0.0530963
714.779	0.0540508
714.914	0.0539315
715.049	0.0527383
715.184	0.0541701
715.318	0.0534542
715.453	0.0546474
715.588	0.0541701
715.723	0.0536929
715.858	0.0545281
715.992	0.055244
716.127	0.0539315
716.262	0.0546474
716.397	0.0536929
716.531	0.0522611
716.666	0.0532156
716.801	0.0540508
716.936	0.0536929
717.07	0.0553633
717.205	0.0519031
717.34	0.055244
717.475	0.0532156
717.61	0.0534542
717.744	0.0528577
717.879	0.0535736
718.014	0.0551247
718.149	0.0539315
718.283	0.0544088
718.418	0.0542895
718.553	0.0535736
718.688	0.0544088
718.822	0.0539315
718.957	0.0542895
719.092	0.0533349
719.227	0.0533349
719.361	0.0540508
719.496	0.0540508
719.631	0.0541701
719.766	0.052619
719.9	0.0548861
720.035	0.0544088
720.17	0.0559599
720.305	0.0544088
720.44	0.0532156
720.574	0.0538122
720.709	0.0538122
720.844	0.0550054
720.979	0.0542895
721.113	0.0533349
721.248	0.0548861
721.383	0.0541701
721.518	0.0528577
721.652	0.0524997
721.787	0.0535736
721.922	0.0538122
722.057	0.0545281
722.191	0.0541701
722.326	0.0550054
722.461	0.0541701
722.596	0.0541701
722.73	0.0536929
722.865	0.0533349
723	0.0532156
723.135	0.055244
723.269	0.0542895
723.404	0.052619
723.539	0.0528577
723.674	0.0533349
723.808	0.0541701
723.943	0.0544088
724.078	0.0542895
724.213	0.0527383
724.347	0.0535736
724.482	0.0547667
724.617	0.0557213
724.752	0.0546474
724.886	0.0545281
725.021	0.0530963
725.156	0.0534542
725.291	0.0533349
725.425	0.0545281
725.56	0.0545281
725.695	0.0532156
725.829	0.0542895
725.964	0.0536929
726.099	0.0547667
726.234	0.052619
726.368	0.0541701
726.503	0.0541701
726.638	0.0541701
726.773	0.0542895
726.907	0.0538122
727.042	0.0533349
727.177	0.0532156
727.312	0.0542895
727.446	0.0542895
727.581	0.0542895
727.716	0.0534542
727.851	0.0538122
727.985	0.0540508
728.12	0.0538122
728.255	0.0532156
728.389	0.0536929
728.524	0.0536929
728.659	0.0539315
728.794	0.0514258
728.928	0.0539315
729.063	0.0554826
729.198	0.0546474
729.333	0.0554826
729.467	0.0540508
729.602	0.0538122
729.737	0.0533349
729.872	0.0533349
730.006	0.0544088
730.141	0.0553633
730.276	0.0540508
730.41	0.0528577
730.545	0.0540508
730.68	0.0573917
730.815	0.0527383
730.949	0.0548861
731.084	0.0528577
731.219	0.0540508
731.354	0.0521417
731.488	0.0550054
731.623	0.052619
731.758	0.0533349
731.892	0.0545281
732.027	0.055602
732.162	0.0530963
732.297	0.0557213
732.431	0.0544088
732.566	0.0541701
732.701	0.0547667
732.835	0.0534542
732.97	0.052619
733.105	0.0542895
733.24	0.0544088
733.374	0.0533349
733.509	0.0554826
733.644	0.0538122
733.779	0.0532156
733.913	0.0535736
734.048	0.0534542
734.183	0.0542895
734.317	0.0553633
734.452	0.0532156
734.587	0.0535736
734.722	0.0542895
734.856	0.0541701
734.991	0.0540508
735.126	0.0541701
735.26	0.0546474
735.395	0.0528577
735.53	0.0521417
735.665	0.0541701
735.799	0.0540508
735.934	0.0567951
736.069	0.0538122
736.203	0.0522611
736.338	0.0528577
736.473	0.0528577
736.607	0.0540508
736.742	0.0541701
736.877	0.0535736
737.012	0.0551247
737.146	0.0536929
737.281	0.0541701
737.416	0.0540508
737.55	0.0540508
737.685	0.052619
737.82	0.055244
737.955	0.0546474
738.089	0.0522611
738.224	0.0539315
738.359	0.055244
738.493	0.0540508
738.628	0.0541701
738.763	0.0535736
738.897	0.052619
739.032	0.0551247
739.167	0.0535736
739.302	0.0550054
739.436	0.0539315
739.571	0.0530963
739.706	0.0535736
739.84	0.0542895
739.975	0.0535736
740.11	0.0530963
740.244	0.0524997
740.379	0.0548861
740.514	0.0546474
740.649	0.0551247
740.783	0.0539315
740.918	0.0535736
741.053	0.0547667
741.187	0.0540508
741.322	0.0540508
741.457	0.0551247
741.591	0.0541701
741.726	0.052977
741.861	0.055244
741.996	0.0533349
742.13	0.0535736
742.265	0.0538122
742.4	0.0547667
742.534	0.0540508
742.669	0.0539315
742.804	0.0544088
742.938	0.052977
743.073	0.0538122
743.208	0.055244
743.342	0.0541701
743.477	0.0535736
743.612	0.0548861
743.747	0.0554826
743.881	0.0539315
744.016	0.0553633
744.151	0.0530963
744.285	0.0542895
744.42	0.0553633
744.555	0.0544088
744.689	0.0535736
744.824	0.0551247
744.959	0.0539315
745.093	0.0533349
745.228	0.0550054
745.363	0.0539315
745.497	0.0535736
745.632	0.0536929
745.767	0.0553633
745.901	0.0546474
746.036	0.0544088
746.171	0.0535736
746.305	0.0538122
746.44	0.0533349
746.575	0.0546474
746.71	0.0536929
746.844	0.0530963
746.979	0.0542895
747.114	0.0541701
747.248	0.0544088
747.383	0.052977
747.518	0.0538122
747.652	0.0536929
747.787	0.0551247
747.922	0.0545281
748.056	0.0536929
748.191	0.0561985
748.326	0.0528577
748.46	0.0545281
748.595	0.0540508
748.73	0.0551247
748.864	0.0541701
748.999	0.052977
749.134	0.0540508
749.268	0.0524997
749.403	0.0548861
749.538	0.0528577
749.672	0.0539315
749.807	0.0551247
749.942	0.0554826
750.076	0.0514258
750.211	0.0532156
750.346	0.055244
750.48	0.0539315
750.615	0.0548861
750.75	0.0523804
750.884	0.0538122
751.019	0.0553633
751.154	0.0534542
751.288	0.0522611
751.423	0.0545281
751.558	0.052977
751.692	0.0528577
751.827	0.0539315
751.962	0.0544088
752.096	0.052977
752.231	0.0550054
752.366	0.0523804
752.5	0.0530963
752.635	0.0546474
752.77	0.0534542
752.904	0.0540508
753.039	0.052977
753.174	0.0536929
753.308	0.0541701
753.443	0.0550054
753.578	0.0553633
753.712	0.0541701
753.847	0.0554826
753.982	0.0541701
754.116	0.052619
754.251	0.0551247
754.386	0.0544088
754.52	0.0521417
754.655	0.0516645
754.79	0.0542895
754.924	0.055602
755.059	0.0539315
755.194	0.0530963
755.328	0.0539315
755.463	0.0539315
755.597	0.0528577
755.732	0.0542895
755.867	0.0538122
756.001	0.0542895
756.136	0.0542895
756.271	0.0565565
756.405	0.0538122
756.54	0.0545281
756.675	0.0550054
756.809	0.055244
756.944	0.0534542
757.079	0.0546474
757.213	0.0548861
757.348	0.0527383
757.483	0.0522611
757.617	0.0554826
757.752	0.0533349
757.887	0.0542895
758.021	0.0544088
758.156	0.0542895
758.29	0.0524997
758.425	0.0527383
758.56	0.052619
758.694	0.0542895
758.829	0.0538122
758.964	0.0535736
759.098	0.0522611
759.233	0.0536929
759.368	0.0542895
759.502	0.0540508
759.637	0.0535736
759.772	0.0547667
759.906	0.0540508
760.041	0.0539315
760.175	0.0546474
760.31	0.0536929
760.445	0.0536929
760.579	0.0548861
760.714	0.0524997
760.849	0.0538122
760.983	0.0553633
761.118	0.0541701
761.253	0.0536929
761.387	0.0547667
761.522	0.0566758
761.656	0.0544088
761.791	0.0538122
761.926	0.0542895
762.06	0.0540508
762.195	0.0535736
762.33	0.0546474
762.464	0.0544088
762.599	0.052619
762.733	0.0541701
762.868	0.0536929
763.003	0.0540508
763.137	0.0558406
763.272	0.0536929
763.407	0.0542895
763.541	0.0535736
763.676	0.0542895
763.811	0.0528577
763.945	0.0539315
764.08	0.0527383
764.214	0.0554826
764.349	0.055602
764.484	0.0544088
764.618	0.0548861
764.753	0.0553633
764.888	0.0546474
765.022	0.0544088
765.157	0.0538122
765.291	0.052977
765.426	0.0546474
765.561	0.0547667
765.695	0.0527383
765.83	0.0558406
765.965	0.0539315
766.099	0.0528577
766.234	0.0534542
766.368	0.0533349
766.503	0.0546474
766.638	0.052977
766.772	0.0536929
766.907	0.0522611
767.041	0.0541701
767.176	0.0540508
767.311	0.0540508
767.445	0.0542895
767.58	0.055244
767.715	0.0539315
767.849	0.0546474
767.984	0.0538122
768.118	0.0538122
768.253	0.0528577
768.388	0.052619
768.522	0.0534542
768.657	0.0533349
768.791	0.0536929
768.926	0.0557213
769.061	0.0532156
769.195	0.0544088
769.33	0.055244
769.465	0.0544088
769.599	0.0544088
769.734	0.0547667
769.868	0.0546474
770.003	0.0527383
770.138	0.0528577
770.272	0.0548861
770.407	0.0535736
770.541	0.0550054
770.676	0.0550054
770.811	0.055244
770.945	0.0551247
771.08	0.055602
771.214	0.0546474
771.349	0.0553633
771.484	0.0553633
771.618	0.0541701
771.753	0.0538122
771.887	0.0557213
772.022	0.0534542
772.157	0.0551247
772.291	0.0541701
772.426	0.0545281
772.56	0.0539315
772.695	0.0545281
772.83	0.0541701
772.964	0.0521417
773.099	0.0561985
773.233	0.0550054
773.368	0.0538122
773.503	0.0536929
773.637	0.0539315
773.772	0.0538122
773.906	0.0535736
774.041	0.0542895
774.176	0.0541701
774.31	0.0539315
774.445	0.0544088
774.579	0.0551247
774.714	0.0534542
774.849	0.0545281
774.983	0.0527383
775.118	0.0539315
775.252	0.055602
775.387	0.0534542
775.522	0.0528577
775.656	0.0540508
775.791	0.0550054
775.925	0.0535736
776.06	0.0546474
776.195	0.0545281
776.329	0.0548861
776.464	0.0550054
776.598	0.0544088
776.733	0.0550054
776.868	0.0544088
777.002	0.0534542
777.137	0.055602
777.271	0.052619
777.406	0.0550054
777.54	0.0535736
777.675	0.0522611
777.81	0.0524997
777.944	0.0540508
778.079	0.0533349
778.213	0.0535736
778.348	0.0551247
778.483	0.0557213
778.617	0.0545281
778.752	0.0547667
778.886	0.0554826
779.021	0.0521417
779.155	0.0527383
779.29	0.0536929
779.425	0.0542895
779.559	0.0548861
779.694	0.0557213
779.828	0.0533349
779.963	0.0515452
780.098	0.0557213
780.232	0.0528577
780.367	0.0528577
780.501	0.0550054
780.636	0.0541701
780.77	0.0540508
780.905	0.0545281
781.04	0.0519031
781.174	0.055244
781.309	0.0540508
781.443	0.0532156
781.578	0.0545281
781.712	0.0538122
781.847	0.0546474
781.982	0.0539315
782.116	0.0570338
782.251	0.0527383
782.385	0.0550054
782.52	0.0538122
782.654	0.0551247
782.789	0.052977
782.924	0.0547667
783.058	0.0534542
783.193	0.0546474
783.327	0.0540508
783.462	0.0536929
783.596	0.0530963
783.731	0.0550054
783.866	0.0527383
784	0.055602
784.135	0.055244
784.269	0.0558406
784.404	0.0550054
784.538	0.0545281
784.673	0.0542895
784.808	0.0534542
784.942	0.0538122
785.077	0.0511872
785.211	0.0544088
785.346	0.0540508
785.48	0.0539315
785.615	0.0528577
785.75	0.0547667
785.884	0.0554826
786.019	0.0534542
786.153	0.0534542
786.288	0.0524997
786.422	0.0542895
786.557	0.0544088
786.691	0.0538122
786.826	0.0536929
786.961	0.0545281
787.095	0.0522611
787.23	0.0530963
787.364	0.052977
787.499	0.0532156
787.633	0.0547667
787.768	0.0542895
787.902	0.0533349
788.037	0.0539315
788.172	0.0533349
788.306	0.052619
788.441	0.0536929
788.575	0.0544088
788.71	0.0534542
788.844	0.0545281
788.979	0.0541701
789.113	0.0539315
789.248	0.0542895
789.383	0.0539315
789.517	0.0538122
789.652	0.0540508
789.786	0.0539315
789.921	0.0539315
790.055	0.0534542
790.19	0.052977
790.324	0.0541701
790.459	0.0546474
790.594	0.0533349
790.728	0.0534542
790.863	0.0536929
790.997	0.0547667
791.132	0.0540508
791.266	0.0551247
791.401	0.0547667
791.535	0.0535736
791.67	0.0522611
791.804	0.0547667
791.939	0.0547667
792.074	0.0554826
792.208	0.0527383
792.343	0.055244
792.477	0.0528577
792.612	0.0540508
792.746	0.0533349
792.881	0.0546474
793.015	0.0538122
793.15	0.0554826
793.284	0.0520224
793.419	0.0538122
793.553	0.0534542
793.688	0.0541701
793.823	0.0523804
793.957	0.0551247
794.092	0.0540508
794.226	0.0533349
794.361	0.0539315
794.495	0.0533349
794.63	0.0545281
794.764	0.0534542
794.899	0.0546474
795.033	0.0550054
795.168	0.0538122
795.302	0.0540508
795.437	0.0546474
795.572	0.0535736
795.706	0.0540508
795.841	0.0544088
795.975	0.0539315
796.11	0.055244
796.244	0.0524997
796.379	0.055602
796.513	0.0533349
796.648	0.052977
796.782	0.0542895
796.917	0.0535736
797.051	0.055244
797.186	0.0544088
797.32	0.0534542
797.455	0.0548861
797.589	0.0517838
797.724	0.0524997
797.859	0.0528577
797.993	0.0551247
798.128	0.055244
798.262	0.0546474
798.397	0.0547667
798.531	0.0540508
798.666	0.0536929
798.8	0.0532156
798.935	0.0547667
799.069	0.0544088
799.204	0.0539315
799.338	0.0546474
799.473	0.0538122
799.607	0.0550054
799.742	0.055244
799.876	0.0530963
800.011	0.0541701
800.145	0.0545281
800.28	0.0559599
800.414	0.0557213
800.549	0.0534542
800.683	0.0539315
800.818	0.0546474
800.953	0.0572724
801.087	0.0550054
801.222	0.0560792
801.356	0.0536929
801.491	0.0551247
801.625	0.0544088
801.76	0.0541701
801.894	0.0546474
802.029	0.0534542
802.163	0.0560792
802.298	0.0570338
802.432	0.0547667
802.567	0.0535736
802.701	0.0545281
802.836	0.0548861
802.97	0.0547667
803.105	0.0561985
803.239	0.0545281
803.374	0.0534542
803.508	0.0558406
803.643	0.0540508
803.777	0.0560792
803.912	0.0547667
804.046	0.0535736
804.181	0.0557213
804.315	0.0546474
804.45	0.0532156
804.584	0.0535736
804.719	0.0551247
804.853	0.0542895
804.988	0.0566758
805.122	0.0551247
805.257	0.0564372
805.391	0.0541701
805.526	0.0560792
805.66	0.0557213
805.795	0.0564372
805.929	0.0547667
806.064	0.0546474
806.198	0.0569144
806.333	0.0560792
806.467	0.0544088
806.602	0.0577497
806.736	0.0545281
806.871	0.0559599
807.005	0.0565565
807.14	0.0546474
807.274	0.0557213
807.409	0.0563179
807.543	0.0560792
807.678	0.0572724
807.812	0.0560792
807.947	0.0588235
808.081	0.0569144
808.216	0.0589428
808.35	0.057869
808.485	0.057511
808.619	0.0583463
808.754	0.0569144
808.888	0.0589428
809.023	0.0593008
809.157	0.0596588
809.292	0.063119
809.426	0.0591815
809.561	0.0618065
809.695	0.0663405
809.83	0.0635962
809.964	0.0662212
810.099	0.0671758
810.233	0.0723064
810.368	0.0779143
810.502	0.0862666
810.637	0.147118
810.771	0.326214
810.906	0.451736
811.04	0.495884
811.175	0.776041
811.309	1
811.444	0.935449
811.578	0.947262
811.713	0.937716
811.847	0.699559
811.982	0.454719
812.116	0.51056
812.251	0.437537
812.385	0.168596
812.519	0.072545
812.654	0.063119
812.788	0.0645508
812.923	0.0703973
813.057	0.075528
813.192	0.0661019
813.326	0.0610906
813.461	0.0581076
813.595	0.0603747
813.73	0.0585849
813.864	0.0571531
813.999	0.0557213
814.133	0.0588235
814.268	0.0557213
814.402	0.0566758
814.537	0.0565565
814.671	0.0558406
814.806	0.055244
814.94	0.0569144
815.075	0.0560792
815.209	0.0560792
815.344	0.0536929
815.478	0.0541701
815.612	0.0560792
815.747	0.0541701
815.881	0.0557213
816.016	0.055602
816.15	0.0550054
816.285	0.0544088
816.419	0.0550054
816.554	0.0554826
816.688	0.0544088
816.823	0.055602
816.957	0.0557213
817.092	0.0547667
817.226	0.0548861
817.361	0.0554826
817.495	0.0538122
817.63	0.0553633
817.764	0.0557213
817.898	0.0533349
818.033	0.0528577
818.167	0.0534542
818.302	0.0554826
818.436	0.0561985
818.571	0.0551247
818.705	0.0540508
818.84	0.0546474
818.974	0.0522611
819.109	0.0540508
819.243	0.0561985
819.378	0.0535736
819.512	0.0551247
819.646	0.0539315
819.781	0.0521417
819.915	0.0540508
820.05	0.0554826
820.184	0.0541701
820.319	0.0522611
820.453	0.0548861
820.588	0.0546474
820.722	0.0538122
820.857	0.0550054
820.991	0.052977
821.126	0.0541701
821.26	0.0546474
821.394	0.0541701
821.529	0.0550054
821.663	0.055602
821.798	0.0550054
821.932	0.0540508
822.067	0.0541701
822.201	0.0551247
822.336	0.0545281
822.47	0.0539315
822.605	0.0541701
822.739	0.0541701
822.873	0.0540508
823.008	0.0541701
823.142	0.0532156
823.277	0.0535736
823.411	0.0539315
823.546	0.0546474
823.68	0.0545281
823.815	0.0557213
823.949	0.0546474
824.083	0.0540508
824.218	0.0550054
824.352	0.0539315
824.487	0.0540508
824.621	0.0535736
824.756	0.0545281
824.89	0.0524997
825.025	0.0519031
825.159	0.052619
825.293	0.0550054
825.428	0.055602
825.562	0.0532156
825.697	0.0544088
825.831	0.055244
825.966	0.055244
826.1	0.0534542
826.235	0.0533349
826.369	0.052977
826.503	0.0546474
826.638	0.055602
826.772	0.0542895
826.907	0.0534542
827.041	0.0545281
827.176	0.0557213
827.31	0.0528577
827.445	0.0541701
827.579	0.0544088
827.713	0.0547667
827.848	0.0530963
827.982	0.0536929
828.117	0.0539315
828.251	0.0544088
828.386	0.055244
828.52	0.0524997
828.654	0.0540508
828.789	0.0528577
828.923	0.0541701
829.058	0.055244
829.192	0.0546474
829.327	0.052977
829.461	0.0542895
829.596	0.0540508
829.73	0.0541701
829.864	0.0541701
829.999	0.0536929
830.133	0.0538122
830.268	0.0546474
830.402	0.055244
830.537	0.0558406
830.671	0.0533349
830.805	0.0534542
830.94	0.0545281
831.074	0.052619
831.209	0.0547667
831.343	0.0559599
831.478	0.0534542
831.612	0.0544088
831.746	0.0538122
831.881	0.052977
832.015	0.0560792
832.15	0.0553633
832.284	0.0539315
832.418	0.0547667
832.553	0.0523804
832.687	0.0532156
832.822	0.0535736
832.956	0.0530963
833.091	0.0522611
833.225	0.0559599
833.359	0.0541701
833.494	0.0541701
833.628	0.0544088
833.763	0.0534542
833.897	0.0542895
834.032	0.0546474
834.166	0.0523804
834.3	0.0540508
834.435	0.0536929
834.569	0.055244
834.704	0.0539315
834.838	0.0534542
834.972	0.0527383
835.107	0.0534542
835.241	0.0542895
835.376	0.0535736
835.51	0.0540508
835.645	0.0532156
835.779	0.0540508
835.913	0.0536929
836.048	0.0539315
836.182	0.0523804
836.317	0.0548861
836.451	0.0546474
836.585	0.0536929
836.72	0.0533349
836.854	0.0538122
836.989	0.0535736
837.123	0.0539315
837.257	0.0527383
837.392	0.0532156
837.526	0.0540508
837.661	0.0540508
837.795	0.0534542
837.929	0.0544088
838.064	0.0536929
838.198	0.0530963
838.333	0.0557213
838.467	0.0532156
838.602	0.0544088
838.736	0.0527383
838.87	0.0539315
839.005	0.0538122
839.139	0.0527383
839.274	0.0551247
839.408	0.0544088
839.542	0.0544088
839.677	0.0535736
839.811	0.0535736
839.946	0.0542895
840.08	0.0532156
840.214	0.0524997
840.349	0.0550054
840.483	0.0519031
840.618	0.052619
840.752	0.0532156
840.886	0.0547667
841.021	0.0548861
841.155	0.055244
841.29	0.0532156
841.424	0.0546474
841.558	0.0545281
841.693	0.0535736
841.827	0.0530963
841.961	0.0530963
842.096	0.0539315
842.23	0.0528577
842.365	0.0538122
842.499	0.0540508
842.633	0.0551247
842.768	0.0536929
842.902	0.0532156
843.037	0.0546474
843.171	0.0546474
843.305	0.055244
843.44	0.0536929
843.574	0.0538122
843.709	0.0540508
843.843	0.0533349
843.977	0.0542895
844.112	0.0536929
844.246	0.0523804
844.381	0.0547667
844.515	0.0534542
844.649	0.0532156
844.784	0.0535736
844.918	0.0540508
845.052	0.0541701
845.187	0.0540508
845.321	0.052977
845.456	0.0534542
845.59	0.0524997
845.724	0.0535736
845.859	0.0535736
845.993	0.0541701
846.128	0.0532156
846.262	0.0532156
846.396	0.0564372
846.531	0.0546474
846.665	0.0544088
846.799	0.0546474
846.934	0.0559599
847.068	0.0539315
847.203	0.0540508
847.337	0.0538122
847.471	0.0528577
847.606	0.0544088
847.74	0.0540508
847.874	0.0545281
848.009	0.0530963
848.143	0.0540508
848.278	0.0530963
848.412	0.055602
848.546	0.0538122
848.681	0.0544088
848.815	0.0536929
848.949	0.0532156
849.084	0.0559599
849.218	0.0535736
849.353	0.0544088
849.487	0.0544088
849.621	0.0544088
849.756	0.0542895
849.89	0.0541701
850.024	0.0536929
850.159	0.0530963
850.293	0.0534542
850.428	0.052977
850.562	0.0532156
850.696	0.0544088
850.831	0.055244
850.965	0.0545281
851.099	0.0532156
851.234	0.0535736
851.368	0.0538122
851.502	0.0523804
851.637	0.0530963
851.771	0.0557213
851.906	0.0544088
852.04	0.055244
852.174	0.0521417
852.309	0.0524997
852.443	0.0542895
852.577	0.0547667
852.712	0.0535736
852.846	0.0548861
852.98	0.0545281
853.115	0.0530963
853.249	0.0535736
853.384	0.055244
853.518	0.0539315
853.652	0.0546474
853.787	0.0540508
853.921	0.0538122
854.055	0.0533349
854.19	0.0553633
854.324	0.052619
854.458	0.0553633
854.593	0.0546474
854.727	0.0558406
854.861	0.0546474
854.996	0.0540508
855.13	0.0521417
855.265	0.0548861
855.399	0.0553633
855.533	0.0548861
855.668	0.0532156
855.802	0.0547667
855.936	0.0515452
856.071	0.0538122
856.205	0.0538122
856.339	0.0541701
856.474	0.0538122
856.608	0.0541701
856.742	0.0536929
856.877	0.0514258
857.011	0.0532156
857.145	0.0527383
857.28	0.0532156
857.414	0.0535736
857.549	0.0554826
857.683	0.0544088
857.817	0.0535736
857.952	0.0553633
858.086	0.0567951
858.22	0.055244
858.355	0.0551247
858.489	0.0522611
858.623	0.0544088
858.758	0.0535736
858.892	0.0557213
859.026	0.0550054
859.161	0.0546474
859.295	0.052619
859.429	0.0558406
859.564	0.0547667
859.698	0.0541701
859.832	0.0536929
859.967	0.0527383
860.101	0.0540508
860.235	0.0538122
860.37	0.0533349
860.504	0.0509486
860.638	0.0538122
860.773	0.052977
860.907	0.0533349
861.041	0.0548861
861.176	0.0538122
861.31	0.0532156
861.444	0.055244
861.579	0.0542895
861.713	0.0542895
861.847	0.0545281
861.982	0.0545281
862.116	0.0535736
862.25	0.0530963
862.385	0.052619
862.519	0.0538122
862.653	0.055602
862.788	0.0536929
862.922	0.0553633
863.056	0.0532156
863.191	0.0538122
863.325	0.0532156
863.459	0.0550054
863.594	0.0538122
863.728	0.0542895
863.862	0.0510679
863.997	0.0544088
864.131	0.0545281
864.265	0.0536929
864.4	0.0545281
864.534	0.0538122
864.668	0.0548861
864.803	0.0533349
864.937	0.0540508
865.071	0.0536929
865.206	0.0519031
865.34	0.0544088
865.474	0.052977
865.609	0.0548861
865.743	0.0546474
865.877	0.0540508
866.012	0.0520224
866.146	0.0544088
866.28	0.0557213
866.415	0.0544088
866.549	0.0545281
866.683	0.0540508
866.818	0.0545281
866.952	0.0539315
867.086	0.0544088
867.221	0.0540508
867.355	0.0553633
867.489	0.0528577
867.623	0.0551247
867.758	0.0528577
867.892	0.0536929
868.026	0.0524997
868.161	0.0527383
868.295	0.0546474
868.429	0.0527383
868.564	0.0527383
868.698	0.0542895
868.832	0.0513065
868.967	0.0534542
869.101	0.0547667
869.235	0.0540508
869.37	0.0547667
869.504	0.0540508
869.638	0.0539315
869.773	0.0540508
869.907	0.0540508
870.041	0.0540508
870.175	0.0559599
870.31	0.0557213
870.444	0.0542895
870.578	0.0519031
870.713	0.0546474
870.847	0.0533349
870.981	0.0533349
871.116	0.0536929
871.25	0.0540508
871.384	0.0558406
871.519	0.0535736
871.653	0.0540508
871.787	0.0532156
871.921	0.0541701
872.056	0.0535736
872.19	0.0540508
872.324	0.0523804
872.459	0.052977
872.593	0.0539315
872.727	0.0542895
872.862	0.0551247
872.996	0.0560792
873.13	0.0527383
873.264	0.0542895
873.399	0.0505906
873.533	0.055602
873.667	0.0528577
873.802	0.0541701
873.936	0.0539315
874.07	0.0560792
874.205	0.0553633
874.339	0.0534542
874.473	0.0530963
874.607	0.0550054
874.742	0.0540508
874.876	0.0550054
875.01	0.0539315
875.145	0.0536929
875.279	0.0540508
875.413	0.0548861
875.548	0.0547667
875.682	0.0533349
875.816	0.0539315
875.95	0.0534542
876.085	0.0539315
876.219	0.0546474
876.353	0.0535736
876.488	0.0538122
876.622	0.0539315
876.756	0.0542895
876.89	0.0544088
877.025	0.0527383
877.159	0.0538122
877.293	0.0540508
877.428	0.055244
877.562	0.0547667
877.696	0.0532156
877.83	0.0530963
877.965	0.052619
878.099	0.0546474
878.233	0.0540508
878.368	0.0553633
878.502	0.0534542
878.636	0.0540508
878.77	0.0538122
878.905	0.0544088
879.039	0.0540508
879.173	0.0539315
879.308	0.0539315
879.442	0.0528577
879.576	0.0530963
879.71	0.0547667
879.845	0.0532156
879.979	0.052977
880.113	0.0532156
880.248	0.0522611
880.382	0.0532156
880.516	0.0528577
880.65	0.0536929
880.785	0.0535736
880.919	0.052619
881.053	0.0541701
881.188	0.0540508
881.322	0.0520224
881.456	0.0527383
881.59	0.0551247
881.725	0.0539315
881.859	0.0544088
881.993	0.0524997
882.127	0.0539315
882.262	0.0561985
882.396	0.0540508
882.53	0.0542895
882.665	0.0523804
882.799	0.052619
882.933	0.0547667
883.067	0.0530963
883.202	0.0530963
883.336	0.055244
883.47	0.0532156
883.604	0.0538122
883.739	0.0536929
883.873	0.0557213
884.007	0.0538122
884.142	0.0545281
884.276	0.055244
884.41	0.0527383
884.544	0.055244
884.679	0.0542895
884.813	0.0545281
884.947	0.0546474
885.081	0.0539315
885.216	0.0539315
885.35	0.0550054
885.484	0.0541701
885.618	0.0533349
885.753	0.0539315
885.887	0.0547667
886.021	0.0533349
886.155	0.0541701
886.29	0.0533349
886.424	0.0540508
886.558	0.0532156
886.693	0.052977
886.827	0.0521417
886.961	0.0539315
887.095	0.0540508
887.23	0.0546474
887.364	0.0546474
887.498	0.0538122
887.632	0.0534542
887.767	0.0546474
887.901	0.0554826
888.035	0.0539315
888.169	0.0545281
888.304	0.0557213
888.438	0.0534542
888.572	0.0554826
888.706	0.0541701
888.841	0.0540508
888.975	0.0533349
889.109	0.0561985
889.243	0.0521417
889.378	0.052977
889.512	0.0538122
889.646	0.0547667
889.78	0.0536929
889.915	0.0560792
890.049	0.0540508
890.183	0.0542895
890.317	0.0540508
890.452	0.0527383
890.586	0.0544088
890.72	0.0542895
890.854	0.0538122
890.989	0.0546474
891.123	0.0545281
891.257	0.0561985
891.391	0.0542895
891.526	0.0544088
891.66	0.0542895
891.794	0.0545281
891.928	0.0545281
892.063	0.0548861
892.197	0.0539315
892.331	0.0559599
892.465	0.0541701
892.6	0.0530963
892.734	0.0539315
892.868	0.0536929
893.002	0.0546474
893.137	0.0523804
893.271	0.0528577
893.405	0.0544088
893.539	0.0540508
893.674	0.0532156
893.808	0.0544088
893.942	0.0544088
894.076	0.0532156
894.21	0.0561985
894.345	0.0546474
894.479	0.0536929
894.613	0.0534542
894.747	0.0535736
894.882	0.0538122
895.016	0.0530963
895.15	0.0523804
895.284	0.0532156
895.419	0.0540508
895.553	0.0567951
895.687	0.0539315
895.821	0.0539315
895.956	0.0530963
896.09	0.0532156
896.224	0.0536929
896.358	0.0524997
896.492	0.0541701
896.627	0.0551247
896.761	0.0536929
896.895	0.0558406
897.029	0.0554826
897.164	0.0550054
897.298	0.0533349
897.432	0.0542895
897.566	0.0544088
897.701	0.0551247
897.835	0.0521417
897.969	0.0533349
898.103	0.0535736
898.237	0.0538122
898.372	0.0538122
898.506	0.0557213
898.64	0.0533349
898.774	0.0539315
898.909	0.0535736
899.043	0.0536929
899.177	0.0524997
899.311	0.0534542
899.445	0.052977
899.58	0.0535736
899.714	0.0538122
899.848	0.0535736
899.982	0.0550054
900.117	0.0535736
900.251	0.0533349
900.385	0.0553633
900.519	0.0557213
900.653	0.0542895
900.788	0.0514258
900.922	0.052619
901.056	0.052977
901.19	0.0528577
901.325	0.0540508
901.459	0.0544088
901.593	0.0541701
901.727	0.0545281
901.861	0.0541701
901.996	0.0530963
902.13	0.052977
902.264	0.0541701
902.398	0.0541701
902.532	0.0535736
902.667	0.0528577
902.801	0.0530963
902.935	0.052619
903.069	0.052619
903.204	0.0532156
903.338	0.052619
903.472	0.052977
903.606	0.0541701
903.74	0.0533349
903.875	0.0545281
904.009	0.0544088
904.143	0.0542895
904.277	0.0523804
904.411	0.0545281
904.546	0.0539315
904.68	0.0554826
904.814	0.0541701
904.948	0.0550054
905.082	0.055244
905.217	0.0539315
905.351	0.0545281
905.485	0.0540508
905.619	0.0534542
905.753	0.0536929
905.888	0.0546474
906.022	0.0541701
906.156	0.0540508
906.29	0.0541701
906.424	0.0534542
906.559	0.0533349
906.693	0.0547667
906.827	0.0551247
906.961	0.0546474
907.095	0.0554826
907.23	0.0538122
907.364	0.0532156
907.498	0.0542895
907.632	0.0545281
907.766	0.0563179
907.901	0.0546474
908.035	0.0570338
908.169	0.0553633
908.303	0.0533349
908.437	0.0547667
908.572	0.0524997
908.706	0.0551247
908.84	0.0536929
908.974	0.0527383
909.108	0.0540508
909.243	0.0532156
909.377	0.055602
909.511	0.0534542
909.645	0.0520224
909.779	0.0533349
909.914	0.0539315
910.048	0.0544088
910.182	0.0539315
910.316	0.0547667
910.45	0.0540508
910.585	0.052977
910.719	0.0550054
910.853	0.0541701
910.987	0.0533349
911.121	0.0534542
911.255	0.0532156
911.39	0.0541701
911.524	0.0536929
911.658	0.0561985
911.792	0.0548861
911.926	0.0540508
912.061	0.0551247
912.195	0.0545281
912.329	0.0553633
912.463	0.0546474
912.597	0.0527383
912.732	0.0523804
912.866	0.0542895
913	0.055602
913.134	0.0536929
913.268	0.0522611
913.402	0.0540508
913.537	0.0533349
913.671	0.0539315
913.805	0.0551247
913.939	0.0542895
914.073	0.0534542
914.208	0.0536929
914.342	0.0546474
914.476	0.0534542
914.61	0.0544088
914.744	0.0534542
914.878	0.0536929
915.013	0.0547667
915.147	0.0538122
915.281	0.0551247
915.415	0.0535736
915.549	0.0545281
915.683	0.0521417
915.818	0.052977
915.952	0.0544088
916.086	0.0551247
916.22	0.0535736
916.354	0.0530963
916.488	0.0521417
916.623	0.0545281
916.757	0.0542895
916.891	0.0538122
917.025	0.0541701
917.159	0.052619
917.293	0.0538122
917.428	0.0548861
917.562	0.0548861
917.696	0.0544088
917.83	0.0544088
917.964	0.0545281
918.098	0.0546474
918.233	0.0546474
918.367	0.0544088
918.501	0.0533349
918.635	0.0527383
918.769	0.052977
918.903	0.0541701
919.038	0.0540508
919.172	0.0533349
919.306	0.0534542
919.44	0.0539315
919.574	0.0536929
919.708	0.0541701
919.843	0.0538122
919.977	0.0528577
920.111	0.0551247
920.245	0.055244
920.379	0.0540508
920.513	0.0532156
920.648	0.0542895
920.782	0.0523804
920.916	0.0546474
921.05	0.0541701
921.184	0.0533349
921.318	0.0547667
921.453	0.0533349
921.587	0.0546474
921.721	0.0542895
921.855	0.0546474
921.989	0.0563179
922.123	0.0544088
922.257	0.0542895
922.392	0.0542895
922.526	0.0538122
922.66	0.052619
922.794	0.055602
922.928	0.0551247
923.062	0.0547667
923.197	0.0550054
923.331	0.0519031
923.465	0.0542895
923.599	0.052619
923.733	0.0542895
923.867	0.0524997
924.001	0.0550054
924.136	0.0539315
924.27	0.0541701
924.404	0.0553633
924.538	0.0544088
924.672	0.0534542
924.806	0.0545281
924.94	0.0534542
925.075	0.0545281
925.209	0.0540508
925.343	0.0551247
925.477	0.0532156
925.611	0.0533349
925.745	0.0532156
925.879	0.0539315
926.014	0.0538122
926.148	0.0546474
926.282	0.0527383
926.416	0.0538122
926.55	0.0542895
926.684	0.0542895
926.818	0.0546474
926.953	0.0542895
927.087	0.052619
927.221	0.0553633
927.355	0.0530963
927.489	0.0532156
927.623	0.0536929
927.757	0.0558406
927.892	0.0545281
928.026	0.0544088
928.16	0.0541701
928.294	0.0548861
928.428	0.0539315
928.562	0.0547667
928.696	0.0539315
928.831	0.0550054
928.965	0.0536929
929.099	0.0534542
929.233	0.0536929
929.367	0.0535736
929.501	0.0532156
929.635	0.0547667
929.769	0.0524997
929.904	0.0544088
930.038	0.0544088
930.172	0.0550054
930.306	0.0545281
930.44	0.0527383
930.574	0.0538122
930.708	0.0534542
930.843	0.0530963
930.977	0.0548861
931.111	0.0535736
931.245	0.052619
931.379	0.0530963
931.513	0.052977
931.647	0.0539315
931.781	0.0557213
931.916	0.0533349
932.05	0.0542895
932.184	0.0554826
932.318	0.0536929
932.452	0.0528577
932.586	0.055244
932.72	0.0534542
932.854	0.0546474
932.989	0.0546474
933.123	0.0530963
933.257	0.0545281
933.391	0.0539315
933.525	0.0545281
933.659	0.0554826
933.793	0.0538122
933.927	0.0548861
934.061	0.0540508
934.196	0.0545281
934.33	0.052619
934.464	0.0547667
934.598	0.0540508
934.732	0.0546474
934.866	0.0542895
935	0.0548861
935.134	0.0541701
935.269	0.0559599
935.403	0.0547667
935.537	0.0548861
935.671	0.052619
935.805	0.0530963
935.939	0.0528577
936.073	0.0544088
936.207	0.0545281
936.341	0.0550054
936.476	0.0533349
936.61	0.0533349
936.744	0.0539315
936.878	0.0538122
937.012	0.0540508
937.146	0.0546474
937.28	0.0527383
937.414	0.0535736
937.548	0.0544088
937.683	0.0546474
937.817	0.0559599
937.951	0.0550054
938.085	0.0542895
938.219	0.0546474
938.353	0.0545281
938.487	0.0544088
938.621	0.0553633
938.755	0.0548861
938.889	0.0550054
939.024	0.0522611
939.158	0.0551247
939.292	0.0542895
939.426	0.0539315
939.56	0.0540508
939.694	0.0536929
939.828	0.0542895
939.962	0.0532156
940.096	0.0542895
940.231	0.0539315
940.365	0.055244
940.499	0.0532156
940.633	0.052619
940.767	0.0527383
940.901	0.0542895
941.035	0.0532156
941.169	0.0544088
941.303	0.0541701
941.437	0.0541701
941.571	0.0544088
941.706	0.0545281
941.84	0.0542895
941.974	0.0557213
942.108	0.0528577
942.242	0.0538122
942.376	0.0545281
942.51	0.052977
942.644	0.0533349
942.778	0.0534542
942.912	0.0528577
943.047	0.0553633
943.181	0.0538122
943.315	0.0542895
943.449	0.0540508
943.583	0.0524997
943.717	0.0538122
943.851	0.0533349
943.985	0.0544088
944.119	0.0546474
944.253	0.0546474
944.387	0.0536929
944.522	0.0541701
944.656	0.0536929
944.79	0.052977
944.924	0.0534542
945.058	0.0536929
945.192	0.0545281
945.326	0.0536929
945.46	0.055244
945.594	0.0544088
945.728	0.0550054
945.862	0.0542895
945.996	0.0542895
946.131	0.0530963
946.265	0.0540508
946.399	0.0554826
946.533	0.0538122
946.667	0.0536929
946.801	0.0544088
946.935	0.0535736
947.069	0.0545281
947.203	0.0541701
947.337	0.0530963
947.471	0.0532156
947.605	0.0544088
947.739	0.0538122
947.874	0.052619
948.008	0.0551247
948.142	0.055602
948.276	0.0539315
948.41	0.0533349
948.544	0.0551247
948.678	0.0530963
948.812	0.0542895
948.946	0.0534542
949.08	0.0522611
949.214	0.0551247
949.348	0.055244
949.482	0.0541701
949.617	0.0559599
949.751	0.0541701
949.885	0.0547667
950.019	0.0541701
950.153	0.0545281
950.287	0.0527383
950.421	0.0533349
950.555	0.0546474
950.689	0.0536929
950.823	0.0519031
950.957	0.0538122
951.091	0.0528577
951.225	0.0551247
951.359	0.0553633
951.493	0.0520224
951.628	0.0519031
951.762	0.0551247
951.896	0.0527383
952.03	0.0545281
952.164	0.0542895
952.298	0.0547667
952.432	0.0547667
952.566	0.0557213
952.7	0.0522611
952.834	0.0538122
952.968	0.0544088
953.102	0.0548861
953.236	0.0541701
953.37	0.055244
953.504	0.0547667
953.639	0.0540508
953.773	0.0536929
953.907	0.0553633
954.041	0.0530963
954.175	0.0541701
954.309	0.0551247
954.443	0.0519031
954.577	0.0524997
954.711	0.052977
954.845	0.0532156
954.979	0.0545281
955.113	0.0545281
955.247	0.0551247
955.381	0.0540508
955.515	0.052977
955.649	0.0527383
955.783	0.0554826
955.917	0.0548861
956.052	0.0532156
956.186	0.0545281
956.32	0.0542895
956.454	0.052977
956.588	0.0520224
956.722	0.0544088
956.856	0.0545281
956.99	0.0535736
957.124	0.0535736
957.258	0.0536929
957.392	0.0534542
957.526	0.0540508
957.66	0.055602
957.794	0.0535736
957.928	0.0539315
958.062	0.0547667
958.196	0.0533349
958.33	0.055244
958.464	0.0539315
958.598	0.0528577
958.733	0.0550054
958.867	0.0530963
959.001	0.055602
959.135	0.0544088
959.269	0.0530963
959.403	0.0546474
959.537	0.0541701
959.671	0.0544088
959.805	0.0541701
959.939	0.0523804
960.073	0.0541701
960.207	0.0532156
960.341	0.0558406
960.475	0.0540508
960.609	0.0545281
960.743	0.0553633
960.877	0.0544088
961.011	0.0547667
961.145	0.052977
961.279	0.055602
961.413	0.0523804
961.547	0.0547667
961.681	0.0533349
961.815	0.0547667
961.949	0.0533349
962.083	0.0540508
962.218	0.0534542
962.352	0.0536929
962.486	0.052619
962.62	0.0524997
962.754	0.0528577
962.888	0.0546474
963.022	0.0553633
963.156	0.0534542
963.29	0.0548861
963.424	0.0541701
963.558	0.0521417
963.692	0.0532156
963.826	0.052977
963.96	0.055244
964.094	0.0533349
964.228	0.0511872
964.362	0.0548861
964.496	0.0539315
964.63	0.0551247
964.764	0.055602
964.898	0.055244
965.032	0.0530963
965.166	0.0547667
965.3	0.0533349
965.434	0.052977
965.568	0.0532156
965.702	0.0545281
965.836	0.0547667
965.97	0.0542895
966.104	0.0553633
966.238	0.0538122
966.372	0.0541701
966.506	0.0553633
966.64	0.0540508
966.774	0.0521417
966.908	0.055244
967.043	0.0534542
967.177	0.0497554
967.311	0.0538122
967.445	0.0545281
967.579	0.0536929
967.713	0.0541701
967.847	0.0545281
967.981	0.0533349
968.115	0.0535736
968.249	0.0550054
968.383	0.0546474
968.517	0.0530963
968.651	0.0547667
968.785	0.0536929
968.919	0.0540508
969.053	0.0557213
969.187	0.0539315
969.321	0.0545281
969.455	0.0534542
969.589	0.0544088
969.723	0.0540508
969.857	0.0546474
969.991	0.0553633
970.125	0.0558406
970.259	0.052619
970.393	0.052619
970.527	0.0548861
970.661	0.0533349
970.795	0.0530963
970.929	0.0541701
971.063	0.0540508
971.197	0.0544088
971.331	0.0541701
971.465	0.0548861
971.599	0.0536929
971.733	0.055244
971.867	0.0533349
972.001	0.0541701
972.135	0.0528577
972.269	0.0545281
972.403	0.0535736
972.537	0.0546474
972.671	0.0541701
972.805	0.0535736
972.939	0.0534542
973.073	0.0533349
973.207	0.0535736
973.341	0.0533349
973.475	0.0535736
973.609	0.0561985
973.743	0.0524997
973.877	0.0530963
974.011	0.052977
974.145	0.0541701
974.279	0.0542895
974.413	0.0542895
974.547	0.0548861
974.681	0.0545281
974.815	0.052977
974.949	0.0530963
975.083	0.0536929
975.217	0.0533349
975.351	0.0532156
975.485	0.0550054
975.619	0.0522611
975.753	0.0557213
975.887	0.0530963
976.021	0.0544088
976.155	0.0547667
976.289	0.0533349
976.423	0.0550054
976.557	0.0542895
976.691	0.0541701
976.825	0.0538122
976.959	0.0538122
977.093	0.0550054
977.227	0.0538122
977.361	0.0534542
977.495	0.0521417
977.629	0.0554826
977.763	0.0542895
977.897	0.0539315
978.031	0.0538122
978.165	0.0540508
978.299	0.0546474
978.433	0.0544088
978.567	0.0534542
978.701	0.0540508
978.835	0.0520224
978.969	0.052977
979.103	0.0535736
979.237	0.0550054
979.371	0.052977
979.505	0.0551247
979.639	0.0538122
979.773	0.0520224
979.907	0.0551247
980.041	0.0530963
980.175	0.0539315
980.308	0.0548861
980.442	0.055244
980.576	0.0544088
980.71	0.0517838
980.844	0.0536929
980.978	0.052977
981.112	0.0532156
981.246	0.0540508
981.38	0.052619
981.514	0.0548861
981.648	0.0571531
981.782	0.052977
981.916	0.052977
982.05	0.0547667
982.184	0.0544088
982.318	0.0548861
982.452	0.0539315
982.586	0.0532156
982.72	0.0544088
982.854	0.0524997
982.988	0.052977
983.122	0.0509486
983.256	0.0545281
983.39	0.0565565
983.524	0.0551247
983.658	0.0540508
983.792	0.0530963
983.926	0.0527383
984.06	0.0538122
984.194	0.0541701
984.328	0.0541701
984.462	0.0545281
984.596	0.0535736
984.73	0.0541701
984.864	0.0545281
984.998	0.0544088
985.132	0.0539315
985.265	0.0553633
985.399	0.0536929
985.533	0.055244
985.667	0.0542895
985.801	0.0533349
985.935	0.0540508
986.069	0.0546474
986.203	0.0541701
986.337	0.0538122
986.471	0.0545281
986.605	0.0538122
986.739	0.0544088
986.873	0.0538122
987.007	0.0538122
987.141	0.0532156
987.275	0.0548861
987.409	0.0542895
987.543	0.0538122
987.677	0.0547667
987.811	0.0540508
987.945	0.0539315
988.079	0.0538122
988.213	0.0563179
988.347	0.0541701
988.481	0.0550054
988.614	0.0547667
988.748	0.052977
988.882	0.0530963
989.016	0.0533349
989.15	0.055244
989.284	0.0540508
989.418	0.0542895
989.552	0.0544088
989.686	0.055602
989.82	0.0544088
989.954	0.052977
990.088	0.0532156
990.222	0.0533349
990.356	0.055244
990.49	0.0533349
990.624	0.0534542
990.758	0.0535736
990.892	0.0540508
991.026	0.0546474
991.16	0.0536929
991.294	0.0542895
991.427	0.0539315
991.561	0.0528577
991.695	0.0542895
991.829	0.0545281
991.963	0.0545281
992.097	0.0535736
992.231	0.0539315
992.365	0.0551247
992.499	0.0544088
992.633	0.0535736
992.767	0.052977
992.901	0.0527383
993.035	0.0551247
993.169	0.0542895
993.303	0.0515452
993.437	0.0541701
993.571	0.0544088
993.704	0.0536929
993.838	0.0534542
993.972	0.0545281
994.106	0.0545281
994.24	0.0548861
994.374	0.0538122
994.508	0.0535736
994.642	0.0532156
994.776	0.0539315
994.91	0.0532156
995.044	0.0539315
995.178	0.0530963
995.312	0.0546474
995.446	0.0528577
995.58	0.052619
995.714	0.0541701
995.847	0.0538122
995.981	0.0554826
996.115	0.0539315
996.249	0.0536929
996.383	0.0545281
996.517	0.0540508
996.651	0.055602
996.785	0.0557213
996.919	0.0533349
997.053	0.0534542
997.187	0.0527383
997.321	0.0532156
997.455	0.0551247
997.589	0.0539315
997.722	0.0544088
997.856	0.0560792
997.99	0.0541701
998.124	0.0533349
998.258	0.052977
998.392	0.0541701
998.526	0.0550054
998.66	0.0538122
998.794	0.0542895
998.928	0.0520224
999.062	0.0535736
999.196	0.0528577
999.33	0.0544088
999.464	0.0546474
999.597	0.0551247
999.731	0.0532156
999.865	0.0548861
999.999	0.0542895
1000.13	0.0508293
1000.27	0.0541701
1000.4	0.0542895
1000.53	0.0516645
1000.67	0.055244
1000.8	0.0533349
1000.94	0.0540508
1001.07	0.0542895
1001.2	0.0539315
1001.34	0.0532156
1001.47	0.055244
1001.61	0.0546474
1001.74	0.0538122
1001.87	0.0539315
1002.01	0.0540508
1002.14	0.0550054
1002.28	0.0542895
1002.41	0.0545281
1002.54	0.0544088
1002.68	0.0536929
1002.81	0.0536929
1002.95	0.0546474
1003.08	0.0540508
1003.21	0.0523804
1003.35	0.0535736
1003.48	0.0536929
1003.61	0.0551247
1003.75	0.0536929
1003.88	0.0542895
1004.02	0.0528577
1004.15	0.0561985
1004.28	0.0534542
1004.42	0.0545281
1004.55	0.0547667
1004.69	0.0521417
1004.82	0.0523804
1004.95	0.0538122
1005.09	0.0540508
1005.22	0.0534542
1005.36	0.0534542
1005.49	0.0539315
1005.62	0.0550054
1005.76	0.0547667
1005.89	0.0553633
1006.03	0.0540508
1006.16	0.0533349
1006.29	0.0566758
1006.43	0.0557213
1006.56	0.0554826
1006.69	0.0547667
1006.83	0.0534542
1006.96	0.0541701
1007.1	0.0553633
1007.23	0.0560792
1007.36	0.0542895
1007.5	0.0527383
1007.63	0.0540508
1007.77	0.0538122
1007.9	0.0520224
1008.03	0.0542895
1008.17	0.0521417
1008.3	0.0539315
1008.44	0.0546474
1008.57	0.0542895
1008.7	0.0538122
1008.84	0.0524997
1008.97	0.055244
1009.1	0.0545281
1009.24	0.0534542
1009.37	0.055244
1009.51	0.0547667
1009.64	0.0532156
1009.77	0.0554826
1009.91	0.0546474
1010.04	0.0532156
1010.18	0.0536929
1010.31	0.055244
1010.44	0.0548861
1010.58	0.0534542
1010.71	0.0551247
1010.85	0.0551247
1010.98	0.0535736
1011.11	0.0540508
1011.25	0.0554826
1011.38	0.0528577
1011.51	0.0546474
1011.65	0.0539315
1011.78	0.0535736
1011.92	0.0540508
1012.05	0.0532156
1012.18	0.0548861
1012.32	0.0522611
1012.45	0.0541701
1012.59	0.0542895
1012.72	0.0544088
1012.85	0.0544088
1012.99	0.0538122
1013.12	0.0517838
1013.26	0.0541701
1013.39	0.0541701
1013.52	0.0535736
1013.66	0.0527383
1013.79	0.0538122
1013.92	0.0533349
1014.06	0.0546474
1014.19	0.0532156
1014.33	0.0536929
1014.46	0.0527383
1014.59	0.0538122
1014.73	0.0527383
1014.86	0.0524997
1015	0.0536929
1015.13	0.0561985
1015.26	0.0528577
1015.4	0.0530963
1015.53	0.0546474
1015.67	0.0545281
1015.8	0.0542895
1015.93	0.0548861
1016.07	0.0521417
1016.2	0.0535736
1016.33	0.0541701
1016.47	0.0530963
1016.6	0.0534542
1016.74	0.0544088
1016.87	0.0546474
1017	0.0539315
1017.14	0.052977
1017.27	0.0548861
1017.41	0.0534542
1017.54	0.0539315
1017.67	0.0540508
1017.81	0.0551247
1017.94	0.0534542
1018.07	0.0528577
1018.21	0.0546474
1018.34	0.0539315
1018.48	0.0533349
1018.61	0.0539315
1018.74	0.0522611
1018.88	0.0538122
1019.01	0.0521417
1019.15	0.0540508
1019.28	0.052977
1019.41	0.0557213
1019.55	0.0547667
1019.68	0.0542895
1019.82	0.0528577
1019.95	0.0550054
1020.08	0.0530963
1020.22	0.0536929
1020.35	0.0530963
1020.48	0.0539315
1020.62	0.0530963
1020.75	0.0530963
1020.89	0.0542895
1021.02	0.0546474
1021.15	0.0534542
1021.29	0.0536929
1021.42	0.052619
1021.56	0.0522611
1021.69	0.0536929
1021.82	0.0545281
1021.96	0.0527383
1022.09	0.0546474
1022.22	0.0541701
1022.36	0.0533349
1022.49	0.0541701
1022.63	0.0535736
1022.76	0.0535736
1022.89	0.055244
1023.03	0.0536929
1023.16	0.0542895
1023.3	0.0528577
1023.43	0.0533349
1023.56	0.0557213
1023.7	0.0535736
1023.83	0.0541701
1023.96	0.0546474
1024.1	0.0544088
1024.23	0.0534542
1024.37	0.0533349
1024.5	0.0534542
1024.63	0.0536929
1024.77	0.055244
1024.9	0.0548861
1025.04	0.0539315
1025.17	0.0546474
1025.3	0.0527383
1025.44	0.0533349
1025.57	0.0520224
1025.7	0.0546474
1025.84	0.0553633
1025.97	0.0530963
1026.11	0.0548861
1026.24	0.0558406
1026.37	0.0534542
1026.51	0.0550054
1026.64	0.0539315
1026.78	0.0534542
1026.91	0.0545281
1027.04	0.0540508
1027.18	0.0534542
1027.31	0.0545281
1027.44	0.0534542
1027.58	0.0541701
1027.71	0.0545281
1027.85	0.0550054
1027.98	0.052977
1028.11	0.0533349
1028.25	0.0523804
1028.38	0.0527383
1028.52	0.0534542
1028.65	0.0535736
1028.78	0.0539315
1028.92	0.0540508
1029.05	0.0541701
1029.18	0.0539315
1029.32	0.0551247
1029.45	0.0536929
1029.59	0.0534542
1029.72	0.0545281
1029.85	0.0545281
1029.99	0.0560792
1030.12	0.0542895
1030.26	0.0541701
1030.39	0.0534542
1030.52	0.0540508
1030.66	0.0554826
1030.79	0.0550054
1030.92	0.0534542
1031.06	0.052619
1031.19	0.0545281
1031.33	0.0542895
1031.46	0.0538122
1031.59	0.0535736
1031.73	0.0548861
1031.86	0.0541701
1031.99	0.0544088
1032.13	0.0528577
1032.26	0.055602
1032.4	0.0541701
1032.53	0.0523804
1032.66	0.0535736
1032.8	0.0546474
1032.93	0.0539315
1033.07	0.0536929
1033.2	0.0538122
1033.33	0.0521417
1033.47	0.0538122
1033.6	0.0544088
1033.73	0.0538122
1033.87	0.0560792
1034	0.0515452
1034.14	0.0551247
1034.27	0.0546474
1034.4	0.0550054
1034.54	0.0538122
1034.67	0.0535736
1034.81	0.0539315
1034.94	0.0532156
1035.07	0.0548861
1035.21	0.0551247
1035.34	0.0538122
1035.47	0.0538122
1035.61	0.0548861
1035.74	0.0533349
1035.88	0.0544088
1036.01	0.0541701
1036.14	0.0534542
1036.28	0.0539315
1036.41	0.0544088
1036.54	0.0533349
1036.68	0.0551247
1036.81	0.0527383
1036.95	0.0527383
1037.08	0.0554826
1037.21	0.0532156
1037.35	0.0533349
1037.48	0.0539315
1037.62	0.0534542
1037.75	0.0544088
1037.88	0.0540508
1038.02	0.052619
1038.15	0.0541701
1038.28	0.0540508
1038.42	0.0554826
1038.55	0.0536929
1038.69	0.0533349
1038.82	0.0558406
1038.95	0.0536929
1039.09	0.0533349
1039.22	0.0544088
1039.35	0.055602
1039.49	0.0540508
1039.62	0.0544088
1039.76	0.0546474
1039.89	0.0547667
1040.02	0.0538122
1040.16	0.0544088
1040.29	0.0544088
1040.43	0.0539315
1040.56	0.0542895
1040.69	0.0538122
1040.83	0.0541701
1040.96	0.0545281
1041.09	0.0524997
1041.23	0.0534542
1041.36	0.0533349
1041.5	0.0542895
1041.63	0.055244
1041.76	0.0548861
1041.9	0.0541701
1042.03	0.0535736
1042.16	0.0536929
1042.3	0.0530963
1042.43	0.0535736
1042.57	0.0547667
1042.7	0.0540508
1042.83	0.0541701
1042.97	0.0544088
1043.1	0.0538122
1043.23	0.052977
1043.37	0.0547667
1043.5	0.0553633
1043.64	0.0535736
1043.77	0.0538122
1043.9	0.0541701
1044.04	0.0542895
1044.17	0.0550054
1044.31	0.0541701
1044.44	0.052977
1044.57	0.0532156
1044.71	0.0541701
1044.84	0.0544088
1044.97	0.0528577
1045.11	0.0523804
1045.24	0.0544088
1045.38	0.0539315
1045.51	0.0534542
1045.64	0.052977
1045.78	0.0532156
1045.91	0.0536929
1046.04	0.052977
1046.18	0.0545281
1046.31	0.0530963
1046.45	0.0532156
1046.58	0.052619
1046.71	0.0546474
1046.85	0.0523804
1046.98	0.0530963
1047.11	0.0551247
1047.25	0.0534542
1047.38	0.0547667
1047.52	0.0532156
1047.65	0.0542895
1047.78	0.0538122
1047.92	0.0530963
1048.05	0.0541701
1048.18	0.0514258
1048.32	0.0535736
1048.45	0.0542895
1048.59	0.0547667
1048.72	0.0534542
1048.85	0.055602
1048.99	0.0528577
1049.12	0.0544088
1049.25	0.0523804
1049.39	0.0527383
1049.52	0.0551247
1049.66	0.0551247
1049.79	0.0541701
1049.92	0.0528577
1050.06	0.0533349
1050.19	0.0544088
1050.33	0.0528577
1050.46	0.0541701
1050.59	0.0536929
1050.73	0.0534542
1050.86	0.0539315
1050.99	0.055602
1051.13	0.0563179
1051.26	0.0545281
1051.4	0.0538122
1051.53	0.0540508
1051.66	0.0536929
1051.8	0.0532156
1051.93	0.052619
1052.06	0.0550054
1052.2	0.0542895
1052.33	0.0553633
1052.47	0.0551247
1052.6	0.0548861
1052.73	0.0519031
1052.87	0.0530963
1053	0.0539315
1053.13	0.055244
1053.27	0.0544088
1053.4	0.0542895
1053.54	0.0547667
1053.67	0.0533349
1053.8	0.0548861
1053.94	0.0540508
1054.07	0.0538122
1054.2	0.052977
1054.34	0.0554826
1054.47	0.0535736
1054.61	0.0534542
1054.74	0.055244
1054.87	0.0533349
1055.01	0.0548861
1055.14	0.0533349
1055.27	0.0528577
1055.41	0.0541701
1055.54	0.0553633
1055.68	0.0544088
1055.81	0.0561985
1055.94	0.0540508
1056.08	0.0538122
1056.21	0.0522611
1056.34	0.0547667
1056.48	0.0550054
1056.61	0.0530963
1056.75	0.0532156
1056.88	0.0535736
1057.01	0.0530963
1057.15	0.0519031
1057.28	0.0530963
1057.41	0.0538122
1057.55	0.0538122
1057.68	0.0538122
1057.82	0.0545281
1057.95	0.0539315
1058.08	0.0553633
1058.22	0.0542895
1058.35	0.0532156
1058.48	0.0528577
1058.62	0.0535736
1058.75	0.0514258
1058.89	0.0540508
1059.02	0.0551247
1059.15	0.0532156
1059.29	0.0539315
1059.42	0.052619
1059.55	0.0533349
1059.69	0.0535736
1059.82	0.0535736
1059.96	0.0544088
1060.09	0.0551247
1060.22	0.0550054
1060.36	0.0541701
1060.49	0.052619
1060.62	0.0550054
1060.76	0.0528577
1060.89	0.0540508
1061.03	0.0534542
1061.16	0.0565565
1061.29	0.0522611
1061.43	0.0538122
1061.56	0.0541701
1061.69	0.0559599
1061.83	0.0522611
1061.96	0.0544088
1062.1	0.0535736
1062.23	0.0530963
1062.36	0.0540508
1062.5	0.0533349
1062.63	0.0547667
1062.76	0.0545281
1062.9	0.0546474
1063.03	0.055602
1063.17	0.0538122
1063.3	0.0524997
1063.43	0.0539315
1063.57	0.0563179
1063.7	0.052977
1063.83	0.0553633
1063.97	0.0538122
1064.1	0.0532156
1064.23	0.0535736
1064.37	0.0548861
1064.5	0.0536929
1064.64	0.0534542
1064.77	0.0519031
1064.9	0.0534542
1065.04	0.0536929
1065.17	0.0551247
1065.3	0.052977
1065.44	0.0527383
1065.57	0.0540508
1065.71	0.0547667
1065.84	0.0547667
1065.97	0.0538122
1066.11	0.0541701
1066.24	0.0545281
1066.37	0.0539315
1066.51	0.0545281
1066.64	0.0558406
1066.78	0.0533349
1066.91	0.052619
1067.04	0.055244
1067.18	0.0544088
1067.31	0.0553633
1067.44	0.0535736
1067.58	0.0557213
1067.71	0.0532156
1067.85	0.0550054
1067.98	0.0540508
1068.11	0.0538122
1068.25	0.055244
1068.38	0.0542895
1068.51	0.0530963
1068.65	0.0547667
1068.78	0.055602
1068.92	0.0530963
1069.05	0.0530963
1069.18	0.0548861
1069.32	0.055244
1069.45	0.0539315
1069.58	0.0522611
1069.72	0.0545281
1069.85	0.0546474
1069.98	0.0560792
1070.12	0.0530963
1070.25	0.0542895
1070.39	0.0546474
1070.52	0.0548861
1070.65	0.0539315
1070.79	0.0554826
1070.92	0.0548861
1071.05	0.0523804
1071.19	0.0539315
1071.32	0.0535736
1071.46	0.0547667
1071.59	0.0540508
1071.72	0.0541701
1071.86	0.0541701
1071.99	0.0533349
1072.12	0.052977
1072.26	0.0545281
1072.39	0.0544088
1072.53	0.0546474
1072.66	0.0523804
1072.79	0.0534542
1072.93	0.0550054
1073.06	0.0535736
1073.19	0.0554826
1073.33	0.0539315
1073.46	0.0542895
1073.59	0.0541701
1073.73	0.055244
1073.86	0.0548861
1074	0.0530963
1074.13	0.0547667
1074.26	0.0547667
1074.4	0.0542895
1074.53	0.0533349
1074.66	0.0546474
1074.8	0.0542895
1074.93	0.0554826
1075.07	0.0541701
1075.2	0.0551247
1075.33	0.0527383
1075.47	0.0530963
1075.6	0.0522611
1075.73	0.0551247
1075.87	0.0536929
1076	0.0536929
1076.14	0.0546474
1076.27	0.0536929
1076.4	0.0539315
1076.54	0.0535736
1076.67	0.0541701
1076.8	0.0547667
1076.94	0.0546474
1077.07	0.0533349
1077.2	0.0548861
1077.34	0.0539315
1077.47	0.055244
1077.61	0.0533349
1077.74	0.0538122
1077.87	0.0538122
1078.01	0.0535736
1078.14	0.0539315
1078.27	0.0527383
1078.41	0.0554826
1078.54	0.0554826
1078.68	0.0524997
1078.81	0.055602
1078.94	0.0544088
1079.08	0.0522611
1079.21	0.0553633
1079.34	0.0542895
1079.48	0.0515452
1079.61	0.0547667
1079.74	0.0539315
1079.88	0.0542895
1080.01	0.0554826
1080.15	0.0550054
1080.28	0.0554826
1080.41	0.0541701
1080.55	0.0542895
1080.68	0.0542895
1080.81	0.0551247
1080.95	0.0545281
1081.08	0.0541701
1081.22	0.0544088
1081.35	0.0546474
1081.48	0.0544088
1081.62	0.0535736
1081.75	0.0533349
1081.88	0.0532156
1082.02	0.0536929
1082.15	0.0542895
1082.28	0.0536929
1082.42	0.0541701
1082.55	0.0532156
1082.69	0.0533349
1082.82	0.0550054
1082.95	0.0544088
1083.09	0.0528577
1083.22	0.0550054
1083.35	0.0528577
1083.49	0.0540508
1083.62	0.0535736
1083.75	0.0546474
1083.89	0.0539315
1084.02	0.0539315
1084.16	0.0538122
1084.29	0.0540508
1084.42	0.0532156
1084.56	0.0547667
1084.69	0.0557213
1084.82	0.0538122
1084.96	0.0540508
1085.09	0.0524997
1085.23	0.0541701
1085.36	0.0544088
1085.49	0.0545281
1085.63	0.0523804
1085.76	0.0540508
1085.89	0.0544088
1086.03	0.0535736
1086.16	0.0557213
1086.29	0.0538122
1086.43	0.0528577
1086.56	0.0540508
1086.7	0.0535736
1086.83	0.0535736
1086.96	0.0522611
1087.1	0.0540508
1087.23	0.0515452
1087.36	0.0523804
1087.5	0.052977
1087.63	0.0535736
1087.76	0.0527383
1087.9	0.0542895
1088.03	0.0542895
1088.17	0.0550054
1088.3	0.0541701
1088.43	0.0560792
1088.57	0.0547667
1088.7	0.0539315
1088.83	0.0540508
1088.97	0.0527383
1089.1	0.0553633
1089.24	0.0542895
1089.37	0.0540508
1089.5	0.0528577
1089.64	0.0544088
1089.77	0.0547667
1089.9	0.0545281
1090.04	0.0515452
1090.17	0.0550054
1090.3	0.055244
1090.44	0.0539315
1090.57	0.0530963
1090.71	0.0533349
1090.84	0.0553633
1090.97	0.0533349
1091.11	0.0536929
1091.24	0.0534542
1091.37	0.0548861
1091.51	0.0539315
1091.64	0.0523804
1091.77	0.0535736
1091.91	0.0535736
1092.04	0.0542895
1092.18	0.0545281
1092.31	0.0535736
1092.44	0.0535736
1092.58	0.0540508
1092.71	0.0542895
1092.84	0.0535736
1092.98	0.0554826
1093.11	0.0547667
1093.24	0.0538122
1093.38	0.0542895
1093.51	0.0528577
1093.65	0.0533349
1093.78	0.0542895
1093.91	0.0535736
1094.05	0.0540508
1094.18	0.0539315
1094.31	0.052977
1094.45	0.0528577
1094.58	0.0533349
1094.71	0.0545281
1094.85	0.0535736
1094.98	0.0540508
1095.12	0.0536929
1095.25	0.0524997
1095.38	0.0535736
1095.52	0.0540508
1095.65	0.0546474
1095.78	0.0532156
1095.92	0.052977
1096.05	0.0532156
1096.18	0.0540508
1096.32	0.0544088
1096.45	0.0547667
1096.59	0.0548861
1096.72	0.0530963
1096.85	0.052977
1096.99	0.0539315
1097.12	0.0550054
1097.25	0.0548861
1097.39	0.0553633
1097.52	0.0519031
1097.65	0.0541701
1097.79	0.0546474
1097.92	0.0532156
1098.06	0.0545281
1098.19	0.0538122
1098.32	0.0541701
1098.46	0.0530963
1098.59	0.0553633
1098.72	0.0546474
1098.86	0.0527383
1098.99	0.052977
1099.12	0.0547667
1099.26	0.0540508
1099.39	0.0528577
1099.53	0.0541701
1099.66	0.0557213
1099.79	0.0535736
1099.93	0.055602
1100.06	0.0521417
1100.19	0.0545281
1100.33	0.0545281
1100.46	0.0539315
1100.59	0.0532156
1100.73	0.0535736
1100.86	0.0541701
1100.99	0.0532156
1101.13	0.0533349
1101.26	0.0535736
1101.4	0.0545281
1101.53	0.0542895
1101.66	0.0539315
1101.8	0.0534542
1101.93	0.0539315
1102.06	0.0530963
1102.2	0.0534542
1102.33	0.0540508
1102.46	0.0538122
1102.6	0.0542895
1102.73	0.0557213
1102.87	0.0545281
1103	0.0558406
1103.13	0.0553633
1103.27	0.052977
1103.4	0.0533349
1103.53	0.0546474
1103.67	0.0533349
1103.8	0.0524997
1103.93	0.0538122
1104.07	0.0532156
1104.2	0.0557213
1104.34	0.0527383
1104.47	0.0530963
1104.6	0.0558406
1104.74	0.0551247
1104.87	0.0524997
1105	0.0540508
1105.14	0.0540508
1105.27	0.0545281
1105.4	0.0535736
1105.54	0.0536929
1105.67	0.052977
1105.8	0.0554826
1105.94	0.055602
1106.07	0.055602
1106.21	0.0524997
1106.34	0.0548861
1106.47	0.0540508
1106.61	0.0546474
1106.74	0.0540508
1106.87	0.0546474
1107.01	0.0542895
1107.14	0.0540508
1107.27	0.0546474
1107.41	0.0545281
1107.54	0.0536929

