Source: Spectrum Viewer

Chart: Pulse Spectrum

Series: 
Wavelength (nm)	S (a.u.)
617.638	0.0261838
617.773	0.0280803
617.908	0.0272238
618.043	0.027652
618.178	0.0278356
618.313	0.0269791
618.448	0.0275297
618.583	0.0271626
618.718	0.0274685
618.853	0.0267955
618.988	0.0278356
619.123	0.0281414
619.258	0.0268567
619.394	0.0277744
619.529	0.0278356
619.664	0.0275297
619.799	0.0278356
619.934	0.0285085
620.069	0.0277132
620.204	0.0268567
620.339	0.0267955
620.474	0.0274073
620.609	0.0275908
620.744	0.0278356
620.879	0.0273461
621.014	0.0273461
621.149	0.0280191
621.284	0.0265508
621.419	0.0268567
621.554	0.0284473
621.689	0.0264285
621.825	0.0280191
621.96	0.027285
622.095	0.0273461
622.23	0.0274073
622.365	0.0280191
622.5	0.0279579
622.635	0.0279579
622.77	0.0277744
622.905	0.027652
623.04	0.0274073
623.175	0.0264285
623.31	0.027285
623.445	0.0280191
623.58	0.027285
623.715	0.027652
623.85	0.028325
623.985	0.0277132
624.12	0.0275297
624.255	0.0281414
624.39	0.0273461
624.525	0.0278356
624.661	0.0274073
624.796	0.0279579
624.931	0.0275297
625.066	0.0275908
625.201	0.0275908
625.336	0.0274073
625.471	0.028325
625.606	0.0264897
625.741	0.0274073
625.876	0.0271626
626.011	0.0274073
626.146	0.0272238
626.281	0.0278356
626.416	0.026612
626.551	0.028325
626.686	0.0269791
626.821	0.0273461
626.956	0.027285
627.091	0.0271014
627.226	0.0275297
627.361	0.0282638
627.496	0.0277744
627.631	0.0269791
627.766	0.0281414
627.901	0.0277744
628.036	0.027652
628.171	0.027285
628.307	0.0271626
628.442	0.027652
628.577	0.0269791
628.712	0.0267344
628.847	0.0270403
628.982	0.0277744
629.117	0.0275908
629.252	0.0267344
629.387	0.0271014
629.522	0.0275908
629.657	0.0270403
629.792	0.0277744
629.927	0.0280803
630.062	0.0277132
630.197	0.0270403
630.332	0.027285
630.467	0.0271014
630.602	0.0271626
630.737	0.0277744
630.872	0.0278967
631.007	0.0274685
631.142	0.0277744
631.277	0.0274685
631.412	0.0263673
631.547	0.026245
631.682	0.0273461
631.817	0.0275908
631.952	0.0280191
632.087	0.0275908
632.222	0.0275297
632.357	0.0278967
632.492	0.0280803
632.627	0.0274685
632.762	0.0288756
632.897	0.027652
633.032	0.0278967
633.167	0.0277744
633.302	0.0273461
633.437	0.0269791
633.572	0.027652
633.707	0.0278356
633.842	0.0271014
633.978	0.0274685
634.113	0.0261226
634.248	0.0272238
634.383	0.027652
634.518	0.0275908
634.653	0.0272238
634.788	0.0280191
634.923	0.0278967
635.058	0.0274073
635.193	0.0282638
635.328	0.0271626
635.463	0.0275297
635.598	0.027285
635.733	0.0278356
635.868	0.0269179
636.003	0.0280191
636.138	0.0267955
636.273	0.027652
636.408	0.0275297
636.543	0.0274685
636.678	0.027652
636.813	0.0271626
636.948	0.0273461
637.083	0.0277132
637.218	0.0271626
637.353	0.0271626
637.488	0.0280803
637.623	0.0277744
637.758	0.0273461
637.893	0.0277132
638.028	0.0270403
638.163	0.0278356
638.298	0.0275908
638.433	0.0279579
638.568	0.027652
638.703	0.0280191
638.838	0.0271626
638.973	0.0277132
639.108	0.0282638
639.243	0.027652
639.378	0.0275297
639.513	0.027652
639.648	0.027285
639.783	0.0269791
639.918	0.027652
640.053	0.0269179
640.188	0.0275908
640.323	0.027285
640.458	0.0271014
640.593	0.0269179
640.728	0.0278967
640.863	0.0279579
640.998	0.0280191
641.133	0.0277132
641.268	0.0275297
641.403	0.027285
641.538	0.0267955
641.673	0.0271626
641.808	0.027652
641.943	0.027285
642.078	0.027285
642.213	0.0274073
642.348	0.027285
642.483	0.0268567
642.618	0.0275908
642.753	0.0271014
642.888	0.0266732
643.023	0.0270403
643.158	0.0277744
643.293	0.0271626
643.428	0.0271014
643.563	0.0272238
643.698	0.0273461
643.833	0.0272238
643.968	0.0272238
644.103	0.0281414
644.237	0.0270403
644.372	0.0272238
644.507	0.0279579
644.642	0.0270403
644.777	0.027285
644.912	0.027652
645.047	0.027285
645.182	0.0269179
645.317	0.0271014
645.452	0.027285
645.587	0.0275908
645.722	0.0273461
645.857	0.0275908
645.992	0.0269179
646.127	0.0274073
646.262	0.027652
646.397	0.0275297
646.532	0.0280803
646.667	0.027285
646.802	0.0280191
646.937	0.0277132
647.072	0.0275297
647.207	0.0269791
647.342	0.027652
647.477	0.0277744
647.612	0.027652
647.747	0.0279579
647.882	0.0273461
648.017	0.0274073
648.152	0.0284473
648.287	0.0267955
648.422	0.0269791
648.557	0.0268567
648.692	0.0273461
648.827	0.027652
648.962	0.0263673
649.097	0.0275908
649.232	0.0270403
649.367	0.0275297
649.502	0.0269179
649.637	0.0278967
649.772	0.027652
649.906	0.0275908
650.041	0.0267955
650.176	0.0267955
650.311	0.0277132
650.446	0.0263061
650.581	0.0275908
650.716	0.0273461
650.851	0.0272238
650.986	0.0268567
651.121	0.0271626
651.256	0.0269791
651.391	0.0274073
651.526	0.0278356
651.661	0.0270403
651.796	0.0274073
651.931	0.0273461
652.066	0.027285
652.201	0.0269791
652.336	0.0274685
652.471	0.0269179
652.606	0.0269179
652.741	0.0275297
652.876	0.0275908
653.011	0.026612
653.146	0.0266732
653.281	0.0275908
653.415	0.0275297
653.55	0.027652
653.685	0.0267955
653.82	0.0273461
653.955	0.0275297
654.09	0.0274073
654.225	0.0264897
654.36	0.0275297
654.495	0.0271014
654.63	0.0265508
654.765	0.0281414
654.9	0.0277132
655.035	0.0275908
655.17	0.0282638
655.305	0.0260614
655.44	0.0271014
655.575	0.027652
655.71	0.0275297
655.845	0.0272238
655.98	0.0272238
656.115	0.0281414
656.25	0.0277132
656.384	0.027285
656.519	0.0275908
656.654	0.0270403
656.789	0.0271626
656.924	0.0274685
657.059	0.0274073
657.194	0.0267955
657.329	0.0285085
657.464	0.0275908
657.599	0.0275297
657.734	0.0272238
657.869	0.0269179
658.004	0.0269791
658.139	0.0273461
658.274	0.028325
658.409	0.0274685
658.544	0.0274685
658.679	0.0265508
658.813	0.0267344
658.948	0.0274073
659.083	0.026612
659.218	0.0275908
659.353	0.0272238
659.488	0.0275297
659.623	0.0269791
659.758	0.0278967
659.893	0.0274685
660.028	0.0265508
660.163	0.0274073
660.298	0.0267344
660.433	0.0277744
660.568	0.0271626
660.703	0.0280803
660.838	0.0281414
660.972	0.0281414
661.107	0.027285
661.242	0.0280191
661.377	0.0269179
661.512	0.027285
661.647	0.0273461
661.782	0.0278356
661.917	0.0280191
662.052	0.0268567
662.187	0.0274073
662.322	0.028325
662.457	0.0267344
662.592	0.0275908
662.727	0.0277744
662.862	0.0263061
662.996	0.0265508
663.131	0.0278967
663.266	0.0264897
663.401	0.0277132
663.536	0.0269791
663.671	0.0268567
663.806	0.027285
663.941	0.0271626
664.076	0.0267344
664.211	0.0269179
664.346	0.027285
664.481	0.0280803
664.616	0.027652
664.75	0.0269791
664.885	0.0269791
665.02	0.0268567
665.155	0.0274073
665.29	0.0277132
665.425	0.0275908
665.56	0.0274073
665.695	0.0271626
665.83	0.0269791
665.965	0.0272238
666.1	0.0261838
666.235	0.0278356
666.37	0.0274073
666.504	0.0272238
666.639	0.0275297
666.774	0.0267955
666.909	0.0275297
667.044	0.0275297
667.179	0.0271014
667.314	0.0267955
667.449	0.0269179
667.584	0.0271626
667.719	0.0268567
667.854	0.0285085
667.989	0.0280803
668.123	0.0272238
668.258	0.0266732
668.393	0.0271626
668.528	0.027652
668.663	0.0271014
668.798	0.027285
668.933	0.0275297
669.068	0.0274073
669.203	0.0274685
669.338	0.0277744
669.473	0.0271014
669.607	0.0277132
669.742	0.0275297
669.877	0.0269791
670.012	0.0270403
670.147	0.0275908
670.282	0.0277744
670.417	0.0267344
670.552	0.0271014
670.687	0.026612
670.822	0.0267955
670.957	0.0264285
671.091	0.0270403
671.226	0.0268567
671.361	0.0281414
671.496	0.027652
671.631	0.0287532
671.766	0.026612
671.901	0.0272238
672.036	0.0279579
672.171	0.0277744
672.306	0.0281414
672.44	0.0275297
672.575	0.0273461
672.71	0.0278356
672.845	0.027652
672.98	0.0268567
673.115	0.027285
673.25	0.0269179
673.385	0.0273461
673.52	0.026612
673.655	0.0275908
673.789	0.0272238
673.924	0.0277132
674.059	0.0275297
674.194	0.0274073
674.329	0.0277132
674.464	0.0272238
674.599	0.0280803
674.734	0.0270403
674.869	0.0271626
675.003	0.0278967
675.138	0.0269791
675.273	0.027652
675.408	0.0273461
675.543	0.0277744
675.678	0.027285
675.813	0.0272238
675.948	0.0282026
676.083	0.0281414
676.217	0.0274685
676.352	0.0277744
676.487	0.0274073
676.622	0.0263673
676.757	0.0271014
676.892	0.0275297
677.027	0.0281414
677.162	0.0270403
677.297	0.0279579
677.431	0.0271014
677.566	0.0274073
677.701	0.0272238
677.836	0.028325
677.971	0.0273461
678.106	0.0265508
678.241	0.0274685
678.376	0.0273461
678.511	0.0268567
678.645	0.0273461
678.78	0.0278356
678.915	0.0277744
679.05	0.0267955
679.185	0.0278356
679.32	0.0278967
679.455	0.0277744
679.59	0.0271626
679.724	0.0274073
679.859	0.0274073
679.994	0.0277132
680.129	0.0271014
680.264	0.0273461
680.399	0.0281414
680.534	0.0278967
680.669	0.0271014
680.803	0.0278967
680.938	0.0270403
681.073	0.0267955
681.208	0.0275297
681.343	0.0268567
681.478	0.0274685
681.613	0.0273461
681.748	0.028325
681.882	0.0272238
682.017	0.0275297
682.152	0.0275908
682.287	0.0272238
682.422	0.0271014
682.557	0.0267344
682.692	0.0268567
682.827	0.0269791
682.961	0.0282638
683.096	0.0270403
683.231	0.0277744
683.366	0.0271626
683.501	0.0277132
683.636	0.0282026
683.771	0.0269791
683.906	0.0271014
684.04	0.0271014
684.175	0.0278356
684.31	0.0278356
684.445	0.0274685
684.58	0.0267344
684.715	0.0271626
684.85	0.0279579
684.984	0.0275908
685.119	0.0273461
685.254	0.0269179
685.389	0.0271014
685.524	0.0280191
685.659	0.0270403
685.794	0.027285
685.928	0.0269179
686.063	0.0271626
686.198	0.0277132
686.333	0.0268567
686.468	0.027652
686.603	0.0277744
686.738	0.0268567
686.872	0.0271626
687.007	0.0274685
687.142	0.0280191
687.277	0.0274073
687.412	0.0274073
687.547	0.0274073
687.682	0.0263673
687.816	0.0267344
687.951	0.0271626
688.086	0.0269179
688.221	0.027285
688.356	0.0278967
688.491	0.026245
688.626	0.0280803
688.76	0.0269791
688.895	0.0274685
689.03	0.0270403
689.165	0.0270403
689.3	0.0277744
689.435	0.027285
689.57	0.0279579
689.704	0.0278356
689.839	0.0267955
689.974	0.0278356
690.109	0.0273461
690.244	0.0274685
690.379	0.0267344
690.513	0.027285
690.648	0.0274073
690.783	0.0275297
690.918	0.0280191
691.053	0.027285
691.188	0.0274073
691.323	0.0277132
691.457	0.027652
691.592	0.0268567
691.727	0.0277132
691.862	0.0275908
691.997	0.0278356
692.132	0.0275908
692.266	0.0275908
692.401	0.027652
692.536	0.0279579
692.671	0.0278356
692.806	0.0269179
692.941	0.0269791
693.075	0.0277744
693.21	0.0277744
693.345	0.027285
693.48	0.0280803
693.615	0.0277132
693.75	0.0277744
693.885	0.0269179
694.019	0.0272238
694.154	0.0277132
694.289	0.0280803
694.424	0.0277744
694.559	0.0271014
694.694	0.0274685
694.828	0.0278356
694.963	0.0265508
695.098	0.0274073
695.233	0.027285
695.368	0.0277744
695.503	0.0275297
695.637	0.0269791
695.772	0.0278356
695.907	0.0273461
696.042	0.0271626
696.177	0.0280803
696.312	0.0274073
696.446	0.0277744
696.581	0.0271626
696.716	0.0282026
696.851	0.0270403
696.986	0.0274685
697.12	0.0274685
697.255	0.027652
697.39	0.0277744
697.525	0.0269791
697.66	0.0285085
697.795	0.0271014
697.929	0.0277132
698.064	0.0269791
698.199	0.0271014
698.334	0.0273461
698.469	0.0274685
698.604	0.0275908
698.738	0.0274685
698.873	0.027285
699.008	0.0277132
699.143	0.0267344
699.278	0.0267955
699.412	0.0275908
699.547	0.0272238
699.682	0.027285
699.817	0.0275297
699.952	0.0265508
700.087	0.0265508
700.221	0.027285
700.356	0.0274073
700.491	0.0283861
700.626	0.0269179
700.761	0.0268567
700.895	0.0278356
701.03	0.0285697
701.165	0.0274073
701.3	0.0271626
701.435	0.027285
701.57	0.028325
701.704	0.0270403
701.839	0.0274073
701.974	0.0266732
702.109	0.0275297
702.244	0.0268567
702.378	0.0280191
702.513	0.0264897
702.648	0.0266732
702.783	0.0275297
702.918	0.0275297
703.052	0.0273461
703.187	0.0280803
703.322	0.0271626
703.457	0.0281414
703.592	0.0271014
703.727	0.0274073
703.861	0.0275908
703.996	0.0281414
704.131	0.0278967
704.266	0.0270403
704.401	0.0275908
704.535	0.0268567
704.67	0.0274073
704.805	0.0280191
704.94	0.0282026
705.075	0.0269791
705.209	0.0273461
705.344	0.0275297
705.479	0.0270403
705.614	0.0282026
705.749	0.0265508
705.883	0.0270403
706.018	0.0271626
706.153	0.0267955
706.288	0.0269791
706.423	0.0274685
706.557	0.0274073
706.692	0.0272238
706.827	0.0274073
706.962	0.0267344
707.097	0.0278356
707.231	0.0275297
707.366	0.027652
707.501	0.0277132
707.636	0.0277744
707.771	0.0274685
707.905	0.027285
708.04	0.0271014
708.175	0.0271626
708.31	0.0279579
708.445	0.0267344
708.579	0.0275908
708.714	0.0278356
708.849	0.0271626
708.984	0.0278967
709.118	0.0284473
709.253	0.0274685
709.388	0.0277744
709.523	0.0273461
709.658	0.0275908
709.792	0.026612
709.927	0.0271014
710.062	0.0272238
710.197	0.0280191
710.332	0.0272238
710.466	0.0278356
710.601	0.0281414
710.736	0.0270403
710.871	0.0271626
711.006	0.0277132
711.14	0.0278356
711.275	0.027652
711.41	0.0278967
711.545	0.0273461
711.679	0.0275908
711.814	0.0280191
711.949	0.0274073
712.084	0.0269791
712.219	0.0270403
712.353	0.027285
712.488	0.0273461
712.623	0.027652
712.758	0.0277132
712.892	0.0278356
713.027	0.0269179
713.162	0.0269179
713.297	0.0268567
713.432	0.0268567
713.566	0.027652
713.701	0.0271626
713.836	0.0279579
713.971	0.0273461
714.105	0.0280803
714.24	0.0264285
714.375	0.0268567
714.51	0.0277744
714.645	0.0267955
714.779	0.0274073
714.914	0.0274685
715.049	0.0280803
715.184	0.0273461
715.318	0.028325
715.453	0.0277132
715.588	0.0269791
715.723	0.0271626
715.858	0.0277132
715.992	0.027285
716.127	0.0275908
716.262	0.0271014
716.397	0.0272238
716.531	0.0282638
716.666	0.0264897
716.801	0.0274685
716.936	0.0268567
717.07	0.0278356
717.205	0.0274685
717.34	0.0272238
717.475	0.0272238
717.61	0.0274073
717.744	0.027652
717.879	0.027285
718.014	0.0272238
718.149	0.0267955
718.283	0.0274073
718.418	0.0271014
718.553	0.0271626
718.688	0.0267955
718.822	0.0278356
718.957	0.027652
719.092	0.0275908
719.227	0.027285
719.361	0.0267955
719.496	0.0277744
719.631	0.0271014
719.766	0.0275908
719.9	0.0272238
720.035	0.0275297
720.17	0.0275908
720.305	0.0271626
720.44	0.0268567
720.574	0.0265508
720.709	0.0278356
720.844	0.0271626
720.979	0.0271014
721.113	0.0267955
721.248	0.0267344
721.383	0.0277132
721.518	0.0285085
721.652	0.0279579
721.787	0.0277132
721.922	0.0263673
722.057	0.0278967
722.191	0.0280803
722.326	0.0274073
722.461	0.0269791
722.596	0.0282026
722.73	0.0271626
722.865	0.0274073
723	0.0272238
723.135	0.0273461
723.269	0.0275908
723.404	0.0267344
723.539	0.0279579
723.674	0.0273461
723.808	0.0278967
723.943	0.0272238
724.078	0.0271626
724.213	0.0271014
724.347	0.0272238
724.482	0.0277132
724.617	0.0265508
724.752	0.0271014
724.886	0.0278356
725.021	0.0271626
725.156	0.0275297
725.291	0.0278356
725.425	0.027285
725.56	0.027652
725.695	0.027652
725.829	0.0278356
725.964	0.0282638
726.099	0.0275908
726.234	0.0278356
726.368	0.0274685
726.503	0.0278967
726.638	0.0281414
726.773	0.0271626
726.907	0.0275297
727.042	0.0271014
727.177	0.027285
727.312	0.0273461
727.446	0.0272238
727.581	0.0267955
727.716	0.0275908
727.851	0.0275908
727.985	0.027652
728.12	0.0267344
728.255	0.0264285
728.389	0.0269791
728.524	0.0269791
728.659	0.0271626
728.794	0.0270403
728.928	0.0274685
729.063	0.0275908
729.198	0.0277132
729.333	0.0274685
729.467	0.0274685
729.602	0.0272238
729.737	0.0271014
729.872	0.0273461
730.006	0.0269179
730.141	0.0263673
730.276	0.0277132
730.41	0.0267344
730.545	0.0277744
730.68	0.027652
730.815	0.0280191
730.949	0.0268567
731.084	0.0277744
731.219	0.028325
731.354	0.0270403
731.488	0.0265508
731.623	0.0274685
731.758	0.0270403
731.892	0.0275908
732.027	0.027285
732.162	0.0274073
732.297	0.0271626
732.431	0.0274073
732.566	0.0271014
732.701	0.027285
732.835	0.0270403
732.97	0.0275908
733.105	0.027285
733.24	0.0269179
733.374	0.0271014
733.509	0.0275297
733.644	0.0271014
733.779	0.0269791
733.913	0.0275297
734.048	0.0277744
734.183	0.027285
734.317	0.027285
734.452	0.0272238
734.587	0.0277132
734.722	0.0275908
734.856	0.0269179
734.991	0.0280191
735.126	0.0275908
735.26	0.0269179
735.395	0.027652
735.53	0.0275297
735.665	0.027285
735.799	0.0272238
735.934	0.0281414
736.069	0.0273461
736.203	0.0278967
736.338	0.0275908
736.473	0.0267955
736.607	0.0278967
736.742	0.0280191
736.877	0.0270403
737.012	0.0274685
737.146	0.027285
737.281	0.0278356
737.416	0.0277744
737.55	0.0267344
737.685	0.0281414
737.82	0.0267344
737.955	0.0274685
738.089	0.0274685
738.224	0.0271014
738.359	0.0271014
738.493	0.0278356
738.628	0.0281414
738.763	0.0271626
738.897	0.0280191
739.032	0.027285
739.167	0.0270403
739.302	0.0277132
739.436	0.0270403
739.571	0.0273461
739.706	0.0268567
739.84	0.0277132
739.975	0.026612
740.11	0.0275297
740.244	0.0267344
740.379	0.0282026
740.514	0.0277744
740.649	0.027652
740.783	0.0267955
740.918	0.0266732
741.053	0.0272238
741.187	0.0272238
741.322	0.0274073
741.457	0.0268567
741.591	0.0280803
741.726	0.0273461
741.861	0.0269791
741.996	0.0277132
742.13	0.0266732
742.265	0.0271626
742.4	0.0273461
742.534	0.027652
742.669	0.0264897
742.804	0.0278967
742.938	0.0280191
743.073	0.027285
743.208	0.0273461
743.342	0.0275297
743.477	0.0274073
743.612	0.0274685
743.747	0.0275297
743.881	0.0273461
744.016	0.0278967
744.151	0.0270403
744.285	0.0274685
744.42	0.0271626
744.555	0.0277744
744.689	0.0274073
744.824	0.0280191
744.959	0.0272238
745.093	0.0275908
745.228	0.0279579
745.363	0.0275297
745.497	0.0287532
745.632	0.0279579
745.767	0.0277132
745.901	0.0272238
746.036	0.0273461
746.171	0.0269179
746.305	0.0272238
746.44	0.0267344
746.575	0.0270403
746.71	0.0280191
746.844	0.0275908
746.979	0.027652
747.114	0.027285
747.248	0.0267344
747.383	0.027652
747.518	0.027652
747.652	0.0281414
747.787	0.0269791
747.922	0.0271014
748.056	0.0274685
748.191	0.0274073
748.326	0.0270403
748.46	0.0275908
748.595	0.0263673
748.73	0.0280191
748.864	0.0269791
748.999	0.0278356
749.134	0.0264897
749.268	0.0278356
749.403	0.026612
749.538	0.0277744
749.672	0.0281414
749.807	0.0279579
749.942	0.026612
750.076	0.0273461
750.211	0.0274685
750.346	0.0266732
750.48	0.0275297
750.615	0.027652
750.75	0.0269791
750.884	0.0268567
751.019	0.0277132
751.154	0.0271014
751.288	0.0272238
751.423	0.0274073
751.558	0.0270403
751.692	0.0265508
751.827	0.0279579
751.962	0.0270403
752.096	0.0271014
752.231	0.0280191
752.366	0.0273461
752.5	0.0282026
752.635	0.0275297
752.77	0.0278967
752.904	0.0274685
753.039	0.0274073
753.174	0.0274073
753.308	0.0264285
753.443	0.0278356
753.578	0.0271626
753.712	0.0282026
753.847	0.027652
753.982	0.0271626
754.116	0.0268567
754.251	0.0269791
754.386	0.0269791
754.52	0.0273461
754.655	0.027652
754.79	0.0268567
754.924	0.0273461
755.059	0.0282026
755.194	0.0269791
755.328	0.0278356
755.463	0.027285
755.597	0.0280191
755.732	0.0269791
755.867	0.0272238
756.001	0.0271014
756.136	0.027285
756.271	0.0271626
756.405	0.0274685
756.54	0.0271626
756.675	0.0277744
756.809	0.0279579
756.944	0.0278356
757.079	0.0274073
757.213	0.0271626
757.348	0.0277744
757.483	0.026245
757.617	0.0271626
757.752	0.0274685
757.887	0.0275908
758.021	0.027652
758.156	0.027285
758.29	0.0278356
758.425	0.0269179
758.56	0.0272238
758.694	0.0271626
758.829	0.0275297
758.964	0.0274685
759.098	0.0274685
759.233	0.0274073
759.368	0.0274073
759.502	0.0274685
759.637	0.026612
759.772	0.0273461
759.906	0.0271626
760.041	0.0278356
760.175	0.0273461
760.31	0.0279579
760.445	0.027285
760.579	0.0270403
760.714	0.0280191
760.849	0.0263673
760.983	0.0273461
761.118	0.027285
761.253	0.0268567
761.387	0.0277744
761.522	0.028325
761.656	0.0274073
761.791	0.0271626
761.926	0.0278967
762.06	0.026612
762.195	0.0277744
762.33	0.0273461
762.464	0.0274073
762.599	0.0271626
762.733	0.027285
762.868	0.027285
763.003	0.0275908
763.137	0.0270403
763.272	0.0275297
763.407	0.027652
763.541	0.027285
763.676	0.0282026
763.811	0.0272238
763.945	0.0274685
764.08	0.0268567
764.214	0.0271014
764.349	0.027285
764.484	0.0275297
764.618	0.027285
764.753	0.0275297
764.888	0.028692
765.022	0.0275908
765.157	0.0277132
765.291	0.0269179
765.426	0.0282638
765.561	0.0269179
765.695	0.0274685
765.83	0.0278356
765.965	0.0275908
766.099	0.0268567
766.234	0.027285
766.368	0.0274685
766.503	0.0271014
766.638	0.0281414
766.772	0.0274685
766.907	0.0267344
767.041	0.0271014
767.176	0.0260614
767.311	0.0277132
767.445	0.0267344
767.58	0.0271014
767.715	0.0278356
767.849	0.0270403
767.984	0.0271014
768.118	0.0275908
768.253	0.0274073
768.388	0.0266732
768.522	0.0271626
768.657	0.027652
768.791	0.0274073
768.926	0.0281414
769.061	0.0277132
769.195	0.0275908
769.33	0.027652
769.465	0.0271626
769.599	0.0274685
769.734	0.0273461
769.868	0.0272238
770.003	0.0265508
770.138	0.0277132
770.272	0.0274073
770.407	0.0269179
770.541	0.0274073
770.676	0.0269179
770.811	0.027652
770.945	0.0270403
771.08	0.0281414
771.214	0.0275297
771.349	0.0280191
771.484	0.0268567
771.618	0.0272238
771.753	0.0271014
771.887	0.0274073
772.022	0.027285
772.157	0.0278356
772.291	0.0266732
772.426	0.027652
772.56	0.0273461
772.695	0.0288144
772.83	0.0267955
772.964	0.0271626
773.099	0.0270403
773.233	0.0275908
773.368	0.0278356
773.503	0.0275297
773.637	0.0277132
773.772	0.027652
773.906	0.0278967
774.041	0.0274073
774.176	0.027652
774.31	0.027652
774.445	0.0270403
774.579	0.026612
774.714	0.0280191
774.849	0.0272238
774.983	0.0280191
775.118	0.0271626
775.252	0.027285
775.387	0.0277744
775.522	0.0273461
775.656	0.0277744
775.791	0.0270403
775.925	0.026612
776.06	0.0280191
776.195	0.0275297
776.329	0.027285
776.464	0.0274073
776.598	0.0270403
776.733	0.0279579
776.868	0.0274685
777.002	0.0275297
777.137	0.0259391
777.271	0.0274685
777.406	0.0269791
777.54	0.0268567
777.675	0.0283861
777.81	0.0280803
777.944	0.0265508
778.079	0.0281414
778.213	0.0271014
778.348	0.0273461
778.483	0.0275297
778.617	0.0277744
778.752	0.0271626
778.886	0.0277744
779.021	0.0284473
779.155	0.0279579
779.29	0.0267344
779.425	0.0274073
779.559	0.027652
779.694	0.027285
779.828	0.0271014
779.963	0.0271626
780.098	0.0272238
780.232	0.027285
780.367	0.0274073
780.501	0.0271014
780.636	0.0283861
780.77	0.0284473
780.905	0.0267344
781.04	0.0274073
781.174	0.0281414
781.309	0.0274685
781.443	0.0269791
781.578	0.0274073
781.712	0.0281414
781.847	0.0268567
781.982	0.027652
782.116	0.027285
782.251	0.0270403
782.385	0.0261838
782.52	0.0280803
782.654	0.0275908
782.789	0.0278967
782.924	0.0274685
783.058	0.0274073
783.193	0.0271626
783.327	0.0274685
783.462	0.0269179
783.596	0.0273461
783.731	0.0268567
783.866	0.0273461
784	0.0271626
784.135	0.0264897
784.269	0.0275297
784.404	0.0280191
784.538	0.0280191
784.673	0.0279579
784.808	0.0269179
784.942	0.0271626
785.077	0.0274073
785.211	0.0274685
785.346	0.0267955
785.48	0.0279579
785.615	0.0274073
785.75	0.0275297
785.884	0.0275908
786.019	0.0274685
786.153	0.0273461
786.288	0.0272238
786.422	0.028325
786.557	0.0277132
786.691	0.0271014
786.826	0.0270403
786.961	0.0278967
787.095	0.0267344
787.23	0.0273461
787.364	0.027285
787.499	0.0274685
787.633	0.0273461
787.768	0.0271626
787.902	0.0278356
788.037	0.0285085
788.172	0.0274685
788.306	0.0273461
788.441	0.0274685
788.575	0.027652
788.71	0.0282026
788.844	0.0280191
788.979	0.0273461
789.113	0.0267344
789.248	0.0270403
789.383	0.0272238
789.517	0.0274685
789.652	0.0278356
789.786	0.0271014
789.921	0.0274685
790.055	0.0273461
790.19	0.0277744
790.324	0.0279579
790.459	0.027652
790.594	0.0274685
790.728	0.0275297
790.863	0.0275297
790.997	0.0280191
791.132	0.0267955
791.266	0.026612
791.401	0.0271014
791.535	0.0275908
791.67	0.0271014
791.804	0.0277132
791.939	0.0278967
792.074	0.0268567
792.208	0.0270403
792.343	0.0277132
792.477	0.0275908
792.612	0.0268567
792.746	0.0283861
792.881	0.026612
793.015	0.0273461
793.15	0.0278967
793.284	0.0282638
793.419	0.0269179
793.553	0.0268567
793.688	0.0270403
793.823	0.0279579
793.957	0.0271014
794.092	0.0280191
794.226	0.0277132
794.361	0.0280191
794.495	0.0274685
794.63	0.0282638
794.764	0.0275908
794.899	0.0278967
795.033	0.027652
795.168	0.0274073
795.302	0.0275908
795.437	0.0274685
795.572	0.0278967
795.706	0.0275297
795.841	0.028692
795.975	0.0283861
796.11	0.028325
796.244	0.027285
796.379	0.0284473
796.513	0.0270403
796.648	0.0272238
796.782	0.0275908
796.917	0.028325
797.051	0.0277132
797.186	0.0282026
797.32	0.028325
797.455	0.0274685
797.589	0.0282638
797.724	0.0272238
797.859	0.0274685
797.993	0.0278356
798.128	0.0275908
798.262	0.0282638
798.397	0.0280191
798.531	0.0280191
798.666	0.027285
798.8	0.0270403
798.935	0.0285085
799.069	0.0281414
799.204	0.0281414
799.338	0.0278967
799.473	0.0280191
799.607	0.0285085
799.742	0.0280803
799.876	0.0280803
800.011	0.0285085
800.145	0.0277744
800.28	0.027652
800.414	0.0277744
800.549	0.0284473
800.683	0.0289367
800.818	0.0280191
800.953	0.0274685
801.087	0.0288756
801.222	0.0288144
801.356	0.0290591
801.491	0.0288144
801.625	0.0280803
801.76	0.0282638
801.894	0.0287532
802.029	0.0278356
802.163	0.0288144
802.298	0.0296709
802.432	0.028325
802.567	0.0289979
802.701	0.0284473
802.836	0.0288756
802.97	0.0296709
803.105	0.0288144
803.239	0.0301603
803.374	0.0297932
803.508	0.029365
803.643	0.0294262
803.777	0.0299768
803.912	0.0299768
804.046	0.0291203
804.181	0.0302215
804.315	0.0300379
804.45	0.0307109
804.584	0.0307721
804.719	0.0308944
804.853	0.0309556
804.988	0.0306497
805.122	0.0317509
805.257	0.0318732
805.391	0.0318732
805.526	0.0325462
805.66	0.0329744
805.795	0.0338921
805.929	0.0340144
806.064	0.0352992
806.198	0.0351156
806.333	0.0358497
806.467	0.0364615
806.602	0.0367062
806.736	0.0401933
806.871	0.0410498
807.005	0.0479016
807.14	0.0568947
807.274	0.0591582
807.409	0.0734125
807.543	0.0911538
807.678	0.101493
807.812	0.121253
807.947	0.344549
808.081	0.457054
808.216	1.00226
808.35	1.00226
808.485	1
808.619	1.00226
808.754	0.995534
808.888	0.999694
809.023	0.988438
809.157	0.993515
809.292	0.979261
809.426	0.9844
809.561	0.959746
809.695	0.965251
809.83	0.469717
809.964	0.161263
810.099	0.167319
810.233	0.238407
810.368	0.234614
810.502	0.19852
810.637	0.0885844
810.771	0.0392145
810.906	0.0364615
811.04	0.0351156
811.175	0.0349321
811.309	0.0343815
811.444	0.0351156
811.578	0.0336474
811.713	0.033158
811.847	0.0317509
811.982	0.0316285
812.116	0.0310168
812.251	0.0315674
812.385	0.0298544
812.519	0.0315062
812.654	0.0304662
812.788	0.0305885
812.923	0.0302215
813.057	0.0308332
813.192	0.0302215
813.326	0.0298544
813.461	0.0297932
813.595	0.0307109
813.73	0.0296097
813.864	0.028325
813.999	0.0288144
814.133	0.0288144
814.268	0.0288144
814.402	0.0288756
814.537	0.0285697
814.671	0.0296709
814.806	0.0288144
814.94	0.0288756
815.075	0.0282026
815.209	0.0282026
815.344	0.0282638
815.478	0.0287532
815.612	0.0288144
815.747	0.0285085
815.881	0.028325
816.016	0.0285697
816.15	0.0280191
816.285	0.0277744
816.419	0.0289367
816.554	0.0282638
816.688	0.0286309
816.823	0.0280803
816.957	0.0277744
817.092	0.0285697
817.226	0.0280191
817.361	0.0277744
817.495	0.0283861
817.63	0.028325
817.764	0.0271014
817.898	0.0271014
818.033	0.0282026
818.167	0.0274073
818.302	0.0278967
818.436	0.0273461
818.571	0.0271014
818.705	0.0283861
818.84	0.0282638
818.974	0.028325
819.109	0.0277744
819.243	0.0277744
819.378	0.0282638
819.512	0.0279579
819.646	0.0277132
819.781	0.0282638
819.915	0.0282026
820.05	0.0271014
820.184	0.0270403
820.319	0.0278356
820.453	0.0269179
820.588	0.0277744
820.722	0.0275908
820.857	0.0275297
820.991	0.027285
821.126	0.0269179
821.26	0.0277744
821.394	0.0278356
821.529	0.0278967
821.663	0.0278967
821.798	0.0269791
821.932	0.0285085
822.067	0.0270403
822.201	0.0275908
822.336	0.0280191
822.47	0.027285
822.605	0.0275297
822.739	0.0274073
822.873	0.026612
823.008	0.0280191
823.142	0.0268567
823.277	0.0271626
823.411	0.0277744
823.546	0.0275908
823.68	0.0280191
823.815	0.0277132
823.949	0.0284473
824.083	0.0271626
824.218	0.0271626
824.352	0.0267955
824.487	0.0269791
824.621	0.0278356
824.756	0.0265508
824.89	0.0278967
825.025	0.0271626
825.159	0.0273461
825.293	0.0274685
825.428	0.027285
825.562	0.027285
825.697	0.027652
825.831	0.0277132
825.966	0.0274073
826.1	0.0267955
826.235	0.0281414
826.369	0.0268567
826.503	0.0275908
826.638	0.0269791
826.772	0.0277744
826.907	0.0275908
827.041	0.0278356
827.176	0.026612
827.31	0.0280803
827.445	0.0274685
827.579	0.028325
827.713	0.0275908
827.848	0.0275908
827.982	0.0274073
828.117	0.0272238
828.251	0.0278356
828.386	0.0273461
828.52	0.0281414
828.654	0.0278356
828.789	0.0267955
828.923	0.0277132
829.058	0.0278356
829.192	0.0273461
829.327	0.027285
829.461	0.0275908
829.596	0.0273461
829.73	0.0266732
829.864	0.0272238
829.999	0.0275297
830.133	0.0275908
830.268	0.026612
830.402	0.0278967
830.537	0.0264897
830.671	0.0277744
830.805	0.027652
830.94	0.0272238
831.074	0.0271626
831.209	0.0277132
831.343	0.0274685
831.478	0.027652
831.612	0.0269791
831.746	0.0267955
831.881	0.0270403
832.015	0.027285
832.15	0.0280803
832.284	0.0269179
832.418	0.0281414
832.553	0.027652
832.687	0.0277132
832.822	0.0278967
832.956	0.0267344
833.091	0.0274685
833.225	0.0274073
833.359	0.0269791
833.494	0.027285
833.628	0.0273461
833.763	0.0280803
833.897	0.0273461
834.032	0.027652
834.166	0.0277744
834.3	0.0268567
834.435	0.0272238
834.569	0.0274685
834.704	0.0275908
834.838	0.0284473
834.972	0.0278356
835.107	0.0275297
835.241	0.0280803
835.376	0.0269179
835.51	0.0277744
835.645	0.0270403
835.779	0.0265508
835.913	0.0272238
836.048	0.0277132
836.182	0.0273461
836.317	0.0278356
836.451	0.0279579
836.585	0.0277744
836.72	0.0263673
836.854	0.0283861
836.989	0.0267955
837.123	0.027652
837.257	0.0267344
837.392	0.0274073
837.526	0.0280803
837.661	0.0270403
837.795	0.0274073
837.929	0.0269179
838.064	0.0271626
838.198	0.0278356
838.333	0.0280191
838.467	0.027652
838.602	0.0275908
838.736	0.0278356
838.87	0.027285
839.005	0.0273461
839.139	0.0277132
839.274	0.0280191
839.408	0.0277132
839.542	0.0275297
839.677	0.0275908
839.811	0.0277744
839.946	0.0271014
840.08	0.0269179
840.214	0.0275908
840.349	0.0281414
840.483	0.0270403
840.618	0.0275908
840.752	0.0271014
840.886	0.0270403
841.021	0.0285085
841.155	0.0282638
841.29	0.0275908
841.424	0.0271014
841.558	0.027652
841.693	0.027285
841.827	0.0278967
841.961	0.0271626
842.096	0.0271626
842.23	0.0269179
842.365	0.0269791
842.499	0.0280803
842.633	0.027652
842.768	0.0273461
842.902	0.0272238
843.037	0.0273461
843.171	0.0271626
843.305	0.0274685
843.44	0.0272238
843.574	0.0274073
843.709	0.0277744
843.843	0.0273461
843.977	0.0280191
844.112	0.0275297
844.246	0.027285
844.381	0.028325
844.515	0.027652
844.649	0.0275908
844.784	0.0275297
844.918	0.027285
845.052	0.0269791
845.187	0.0274073
845.321	0.0275297
845.456	0.0280191
845.59	0.0275297
845.724	0.0274073
845.859	0.0274685
845.993	0.0266732
846.128	0.0277744
846.262	0.0271626
846.396	0.0275908
846.531	0.0274073
846.665	0.0269791
846.799	0.0278967
846.934	0.027285
847.068	0.0271014
847.203	0.0274685
847.337	0.0277744
847.471	0.027652
847.606	0.0265508
847.74	0.0278967
847.874	0.0269791
848.009	0.0275297
848.143	0.027652
848.278	0.0278967
848.412	0.0275297
848.546	0.0275297
848.681	0.0277744
848.815	0.026612
848.949	0.0274073
849.084	0.0269179
849.218	0.0272238
849.353	0.0271626
849.487	0.0267955
849.621	0.027285
849.756	0.0269179
849.89	0.0267344
850.024	0.0267344
850.159	0.0267955
850.293	0.0281414
850.428	0.0266732
850.562	0.0274073
850.696	0.0271014
850.831	0.0278967
850.965	0.0281414
851.099	0.0275908
851.234	0.0279579
851.368	0.0264897
851.502	0.0273461
851.637	0.0275297
851.771	0.027652
851.906	0.0271014
852.04	0.0275908
852.174	0.0273461
852.309	0.0274073
852.443	0.0280191
852.577	0.0272238
852.712	0.0274073
852.846	0.0271014
852.98	0.0272238
853.115	0.0274073
853.249	0.0271014
853.384	0.0282638
853.518	0.0280191
853.652	0.0271626
853.787	0.0281414
853.921	0.0272238
854.055	0.0266732
854.19	0.0275908
854.324	0.0278967
854.458	0.0277744
854.593	0.0281414
854.727	0.0269179
854.861	0.0273461
854.996	0.0267955
855.13	0.0274073
855.265	0.0269791
855.399	0.0275297
855.533	0.0271014
855.668	0.0274685
855.802	0.0264285
855.936	0.0274685
856.071	0.0281414
856.205	0.0277132
856.339	0.0277132
856.474	0.0260614
856.608	0.0273461
856.742	0.0285085
856.877	0.0269791
857.011	0.0278356
857.145	0.027652
857.28	0.0273461
857.414	0.0274685
857.549	0.0280191
857.683	0.0274685
857.817	0.0275297
857.952	0.0270403
858.086	0.0281414
858.22	0.0277132
858.355	0.0279579
858.489	0.0261226
858.623	0.0266732
858.758	0.0277744
858.892	0.0265508
859.026	0.0274685
859.161	0.0275908
859.295	0.027285
859.429	0.0274685
859.564	0.0280191
859.698	0.0279579
859.832	0.0260614
859.967	0.0272238
860.101	0.0270403
860.235	0.027285
860.37	0.0277744
860.504	0.027285
860.638	0.026612
860.773	0.0273461
860.907	0.027652
861.041	0.0274073
861.176	0.0269791
861.31	0.0263061
861.444	0.0277132
861.579	0.0275908
861.713	0.0268567
861.847	0.0269791
861.982	0.0268567
862.116	0.0282638
862.25	0.0282638
862.385	0.0270403
862.519	0.0281414
862.653	0.0263061
862.788	0.0271014
862.922	0.0279579
863.056	0.0277132
863.191	0.027285
863.325	0.028325
863.459	0.027285
863.594	0.0271626
863.728	0.0269791
863.862	0.027652
863.997	0.0269791
864.131	0.0282638
864.265	0.0277132
864.4	0.0273461
864.534	0.0272238
864.668	0.0271014
864.803	0.0275297
864.937	0.0264285
865.071	0.0267344
865.206	0.0271626
865.34	0.0271014
865.474	0.0277744
865.609	0.0271626
865.743	0.0283861
865.877	0.0274073
866.012	0.0274073
866.146	0.0278356
866.28	0.0272238
866.415	0.0275297
866.549	0.0267955
866.683	0.0274073
866.818	0.0272238
866.952	0.0272238
867.086	0.0282026
867.221	0.0275297
867.355	0.027285
867.489	0.0277744
867.623	0.0275908
867.758	0.0267344
867.892	0.0268567
868.026	0.0270403
868.161	0.0270403
868.295	0.0269791
868.429	0.0277744
868.564	0.0270403
868.698	0.0272238
868.832	0.0267955
868.967	0.0278356
869.101	0.027652
869.235	0.0273461
869.37	0.0280191
869.504	0.0274685
869.638	0.0282026
869.773	0.0274073
869.907	0.0278967
870.041	0.0269791
870.175	0.0279579
870.31	0.0278356
870.444	0.0270403
870.578	0.0272238
870.713	0.0273461
870.847	0.027285
870.981	0.0269791
871.116	0.0277132
871.25	0.027652
871.384	0.0274685
871.519	0.0278967
871.653	0.0271626
871.787	0.0270403
871.921	0.0266732
872.056	0.0266732
872.19	0.0269179
872.324	0.0273461
872.459	0.0279579
872.593	0.0269179
872.727	0.0275908
872.862	0.0269791
872.996	0.0278967
873.13	0.0275297
873.264	0.0270403
873.399	0.026612
873.533	0.027652
873.667	0.026612
873.802	0.027285
873.936	0.0274685
874.07	0.0277132
874.205	0.0271626
874.339	0.0277744
874.473	0.0281414
874.607	0.0269791
874.742	0.0272238
874.876	0.0269179
875.01	0.0273461
875.145	0.0271014
875.279	0.0271626
875.413	0.0277132
875.548	0.0272238
875.682	0.0267955
875.816	0.0274073
875.95	0.0272238
876.085	0.0269179
876.219	0.027285
876.353	0.0275908
876.488	0.0267344
876.622	0.0275908
876.756	0.0275297
876.89	0.0275908
877.025	0.0280803
877.159	0.0269179
877.293	0.0269791
877.428	0.0264285
877.562	0.0267344
877.696	0.0277132
877.83	0.0282638
877.965	0.0268567
878.099	0.0269179
878.233	0.0268567
878.368	0.0274685
878.502	0.0271014
878.636	0.0269791
878.77	0.0275908
878.905	0.0278967
879.039	0.0271014
879.173	0.026245
879.308	0.0269791
879.442	0.027652
879.576	0.0273461
879.71	0.0264897
879.845	0.0273461
879.979	0.0271014
880.113	0.0277744
880.248	0.027285
880.382	0.0282638
880.516	0.0271626
880.65	0.028325
880.785	0.0277744
880.919	0.027285
881.053	0.0278356
881.188	0.0270403
881.322	0.0273461
881.456	0.0274073
881.59	0.0270403
881.725	0.0264897
881.859	0.0271014
881.993	0.027652
882.127	0.027285
882.262	0.0272238
882.396	0.027285
882.53	0.0267344
882.665	0.0273461
882.799	0.0278356
882.933	0.0277744
883.067	0.0272238
883.202	0.0274073
883.336	0.0274073
883.47	0.027652
883.604	0.0277744
883.739	0.0271014
883.873	0.027285
884.007	0.0271626
884.142	0.0271014
884.276	0.0269179
884.41	0.0278356
884.544	0.0267955
884.679	0.0277744
884.813	0.0272238
884.947	0.0275297
885.081	0.0274073
885.216	0.0275297
885.35	0.026612
885.484	0.0272238
885.618	0.027285
885.753	0.0269179
885.887	0.0279579
886.021	0.0268567
886.155	0.0268567
886.29	0.0271626
886.424	0.0277744
886.558	0.0269179
886.693	0.027652
886.827	0.0272238
886.961	0.0275908
887.095	0.0261838
887.23	0.0280191
887.364	0.0277132
887.498	0.0274685
887.632	0.0278967
887.767	0.027652
887.901	0.0275297
888.035	0.0271626
888.169	0.0273461
888.304	0.027652
888.438	0.027652
888.572	0.0271014
888.706	0.0271626
888.841	0.0265508
888.975	0.0258167
889.109	0.0272238
889.243	0.0278967
889.378	0.0267955
889.512	0.0274685
889.646	0.0281414
889.78	0.0271626
889.915	0.0279579
890.049	0.026612
890.183	0.0280803
890.317	0.027652
890.452	0.0274685
890.586	0.0277744
890.72	0.0270403
890.854	0.0272238
890.989	0.0267955
891.123	0.0270403
891.257	0.0269791
891.391	0.0278356
891.526	0.0281414
891.66	0.0275908
891.794	0.027285
891.928	0.0272238
892.063	0.0271014
892.197	0.0272238
892.331	0.0275908
892.465	0.0271626
892.6	0.0268567
892.734	0.0278967
892.868	0.0269179
893.002	0.0269179
893.137	0.0275297
893.271	0.0271014
893.405	0.0277744
893.539	0.0269179
893.674	0.0273461
893.808	0.0270403
893.942	0.0270403
894.076	0.0277132
894.21	0.0273461
894.345	0.0274685
894.479	0.0270403
894.613	0.0274073
894.747	0.0264285
894.882	0.0274073
895.016	0.027285
895.15	0.0274685
895.284	0.0277744
895.419	0.0271014
895.553	0.0278356
895.687	0.0272238
895.821	0.0275297
895.956	0.0282638
896.09	0.0271626
896.224	0.0267344
896.358	0.0274685
896.492	0.0273461
896.627	0.0277744
896.761	0.0268567
896.895	0.0275297
897.029	0.0269179
897.164	0.0273461
897.298	0.0271626
897.432	0.027285
897.566	0.0261226
897.701	0.0269791
897.835	0.027652
897.969	0.0277744
898.103	0.0272238
898.237	0.0278356
898.372	0.0278356
898.506	0.0265508
898.64	0.0278356
898.774	0.0274073
898.909	0.0275297
899.043	0.027285
899.177	0.0274685
899.311	0.0281414
899.445	0.0270403
899.58	0.0274685
899.714	0.0282638
899.848	0.027285
899.982	0.0264897
900.117	0.0271014
900.251	0.0273461
900.385	0.0270403
900.519	0.0281414
900.653	0.0274073
900.788	0.0278967
900.922	0.0278356
901.056	0.0266732
901.19	0.0271014
901.325	0.0271014
901.459	0.027285
901.593	0.0271626
901.727	0.0273461
901.861	0.0271014
901.996	0.0278967
902.13	0.0274685
902.264	0.0274073
902.398	0.0267344
902.532	0.027652
902.667	0.0267955
902.801	0.0271626
902.935	0.0278967
903.069	0.0282638
903.204	0.0274685
903.338	0.026612
903.472	0.0273461
903.606	0.0278967
903.74	0.0275908
903.875	0.0271014
904.009	0.0271014
904.143	0.0271014
904.277	0.0277744
904.411	0.0271014
904.546	0.0281414
904.68	0.0275908
904.814	0.0275908
904.948	0.0277744
905.082	0.0275908
905.217	0.0271014
905.351	0.0267955
905.485	0.0279579
905.619	0.0272238
905.753	0.027285
905.888	0.0272238
906.022	0.027285
906.156	0.0270403
906.29	0.0280191
906.424	0.0277132
906.559	0.0270403
906.693	0.0277744
906.827	0.0278356
906.961	0.0271626
907.095	0.0271014
907.23	0.027285
907.364	0.0268567
907.498	0.0271014
907.632	0.0271014
907.766	0.0285697
907.901	0.0282638
908.035	0.0271626
908.169	0.0275908
908.303	0.0269179
908.437	0.0269179
908.572	0.0277744
908.706	0.0271014
908.84	0.027285
908.974	0.0277132
909.108	0.0275297
909.243	0.0273461
909.377	0.0271626
909.511	0.0267344
909.645	0.027285
909.779	0.0270403
909.914	0.027652
910.048	0.0270403
910.182	0.0277132
910.316	0.0277744
910.45	0.0272238
910.585	0.0275908
910.719	0.0280191
910.853	0.0271626
910.987	0.0267955
911.121	0.0282026
911.255	0.0268567
911.39	0.0271626
911.524	0.0269179
911.658	0.0272238
911.792	0.0278967
911.926	0.0279579
912.061	0.0275297
912.195	0.0278967
912.329	0.0273461
912.463	0.0280803
912.597	0.0281414
912.732	0.027652
912.866	0.0267344
913	0.0264897
913.134	0.0269791
913.268	0.0282638
913.402	0.0275908
913.537	0.027285
913.671	0.0269179
913.805	0.027285
913.939	0.0267344
914.073	0.027652
914.208	0.0271014
914.342	0.0275908
914.476	0.0274073
914.61	0.0268567
914.744	0.0283861
914.878	0.0272238
915.013	0.027285
915.147	0.0264897
915.281	0.0269179
915.415	0.0269179
915.549	0.0275297
915.683	0.0271014
915.818	0.0264897
915.952	0.0277744
916.086	0.0281414
916.22	0.0271014
916.354	0.0273461
916.488	0.0277744
916.623	0.0269791
916.757	0.0270403
916.891	0.0272238
917.025	0.027285
917.159	0.027652
917.293	0.0277744
917.428	0.0275908
917.562	0.0278356
917.696	0.026612
917.83	0.0268567
917.964	0.0277744
918.098	0.0274073
918.233	0.0271014
918.367	0.0267344
918.501	0.0270403
918.635	0.0273461
918.769	0.027652
918.903	0.0277744
919.038	0.0278356
919.172	0.0277132
919.306	0.0278967
919.44	0.0267955
919.574	0.0277744
919.708	0.0277132
919.843	0.0280191
919.977	0.0275297
920.111	0.0275297
920.245	0.0278356
920.379	0.0278356
920.513	0.0271626
920.648	0.028325
920.782	0.0280803
920.916	0.0274685
921.05	0.0274073
921.184	0.027285
921.318	0.0274073
921.453	0.0272238
921.587	0.0275297
921.721	0.0273461
921.855	0.0284473
921.989	0.0271014
922.123	0.0274685
922.257	0.0275908
922.392	0.0277132
922.526	0.0270403
922.66	0.028692
922.794	0.0268567
922.928	0.0271014
923.062	0.0270403
923.197	0.0278967
923.331	0.027285
923.465	0.0273461
923.599	0.027652
923.733	0.0273461
923.867	0.0269179
924.001	0.0278967
924.136	0.0277744
924.27	0.0273461
924.404	0.0268567
924.538	0.0273461
924.672	0.0263673
924.806	0.0264897
924.94	0.0275297
925.075	0.0279579
925.209	0.0274685
925.343	0.0273461
925.477	0.0272238
925.611	0.0267955
925.745	0.0275908
925.879	0.027285
926.014	0.027652
926.148	0.0274073
926.282	0.0271626
926.416	0.0275908
926.55	0.0271014
926.684	0.0267344
926.818	0.0278967
926.953	0.0271626
927.087	0.0269791
927.221	0.027285
927.355	0.0264285
927.489	0.0278356
927.623	0.0269791
927.757	0.0283861
927.892	0.0269791
928.026	0.0272238
928.16	0.0269179
928.294	0.0272238
928.428	0.0275908
928.562	0.0285085
928.696	0.0271014
928.831	0.0275297
928.965	0.0280803
929.099	0.0283861
929.233	0.0282638
929.367	0.0274073
929.501	0.0280803
929.635	0.0275908
929.769	0.0272238
929.904	0.0274685
930.038	0.0267344
930.172	0.0273461
930.306	0.0272238
930.44	0.0277744
930.574	0.0275908
930.708	0.028325
930.843	0.0268567
930.977	0.027285
931.111	0.0271626
931.245	0.0273461
931.379	0.0278356
931.513	0.027652
931.647	0.0274685
931.781	0.0279579
931.916	0.0271626
932.05	0.0272238
932.184	0.0269791
932.318	0.0275908
932.452	0.0270403
932.586	0.0275297
932.72	0.0274685
932.854	0.0275908
932.989	0.0269179
933.123	0.027285
933.257	0.0274073
933.391	0.0275908
933.525	0.0271626
933.659	0.0274685
933.793	0.0274073
933.927	0.0280803
934.061	0.0267344
934.196	0.0275908
934.33	0.0275908
934.464	0.027652
934.598	0.027285
934.732	0.0278356
934.866	0.0274685
935	0.0272238
935.134	0.0270403
935.269	0.0277132
935.403	0.0270403
935.537	0.0268567
935.671	0.0267955
935.805	0.0271626
935.939	0.0273461
936.073	0.0282638
936.207	0.0275908
936.341	0.0264897
936.476	0.0269791
936.61	0.0270403
936.744	0.0280191
936.878	0.027652
937.012	0.0274685
937.146	0.0269791
937.28	0.0274073
937.414	0.0271014
937.548	0.026612
937.683	0.0280191
937.817	0.0268567
937.951	0.0281414
938.085	0.0271626
938.219	0.0272238
938.353	0.0271014
938.487	0.0272238
938.621	0.027285
938.755	0.0270403
938.889	0.0267955
939.024	0.0274685
939.158	0.0271626
939.292	0.0275297
939.426	0.027285
939.56	0.0268567
939.694	0.0266732
939.828	0.0280803
939.962	0.0271626
940.096	0.0279579
940.231	0.0277132
940.365	0.0267344
940.499	0.0271626
940.633	0.0272238
940.767	0.0283861
940.901	0.027285
941.035	0.0266732
941.169	0.0282638
941.303	0.027652
941.437	0.027652
941.571	0.0278967
941.706	0.0266732
941.84	0.0274685
941.974	0.0277132
942.108	0.027285
942.242	0.0260614
942.376	0.0269791
942.51	0.0275297
942.644	0.026612
942.778	0.0267344
942.912	0.0269791
943.047	0.0278967
943.181	0.0271626
943.315	0.0269791
943.449	0.0274685
943.583	0.0273461
943.717	0.0263673
943.851	0.0270403
943.985	0.0269179
944.119	0.0263673
944.253	0.0269791
944.387	0.0272238
944.522	0.0263061
944.656	0.0266732
944.79	0.0269791
944.924	0.0266732
945.058	0.027285
945.192	0.0278967
945.326	0.0267955
945.46	0.0272238
945.594	0.027285
945.728	0.0272238
945.862	0.027285
945.996	0.026612
946.131	0.0269179
946.265	0.0282026
946.399	0.0274073
946.533	0.0274685
946.667	0.0273461
946.801	0.0271014
946.935	0.0275908
947.069	0.0274685
947.203	0.0280191
947.337	0.0280803
947.471	0.0275908
947.605	0.0275297
947.739	0.0271014
947.874	0.0288144
948.008	0.0275908
948.142	0.0275297
948.276	0.0271014
948.41	0.0280191
948.544	0.0274073
948.678	0.027285
948.812	0.0271014
948.946	0.026612
949.08	0.0277132
949.214	0.0272238
949.348	0.0264285
949.482	0.0275297
949.617	0.0272238
949.751	0.0277744
949.885	0.0271014
950.019	0.0275908
950.153	0.0266732
950.287	0.0274073
950.421	0.0277132
950.555	0.0271014
950.689	0.0269179
950.823	0.0271014
950.957	0.0275908
951.091	0.0275297
951.225	0.0278967
951.359	0.0264897
951.493	0.0267344
951.628	0.0275297
951.762	0.0269791
951.896	0.0282026
952.03	0.0270403
952.164	0.0275908
952.298	0.0274685
952.432	0.0277744
952.566	0.0272238
952.7	0.0278356
952.834	0.0271014
952.968	0.0279579
953.102	0.027285
953.236	0.026245
953.37	0.0267344
953.504	0.0270403
953.639	0.0269179
953.773	0.0277744
953.907	0.0267955
954.041	0.0274073
954.175	0.0271014
954.309	0.0264285
954.443	0.0265508
954.577	0.0272238
954.711	0.027652
954.845	0.0281414
954.979	0.0269179
955.113	0.0265508
955.247	0.0275908
955.381	0.0272238
955.515	0.0269179
955.649	0.0275297
955.783	0.0273461
955.917	0.0281414
956.052	0.0269791
956.186	0.0277132
956.32	0.0271626
956.454	0.0269179
956.588	0.0269179
956.722	0.0274685
956.856	0.0272238
956.99	0.0279579
957.124	0.0277132
957.258	0.0275908
957.392	0.0269179
957.526	0.0277744
957.66	0.0273461
957.794	0.0271014
957.928	0.0273461
958.062	0.0271626
958.196	0.027652
958.33	0.0274685
958.464	0.0268567
958.598	0.0271014
958.733	0.0277744
958.867	0.0277132
959.001	0.0274685
959.135	0.0275297
959.269	0.0274685
959.403	0.0266732
959.537	0.0278967
959.671	0.0263673
959.805	0.0274073
959.939	0.0275297
960.073	0.0267344
960.207	0.0275908
960.341	0.0274073
960.475	0.0277132
960.609	0.0274073
960.743	0.0269179
960.877	0.027652
961.011	0.0277744
961.145	0.0282026
961.279	0.027652
961.413	0.0269791
961.547	0.0268567
961.681	0.0261226
961.815	0.0278356
961.949	0.0269179
962.083	0.0264897
962.218	0.0279579
962.352	0.0274685
962.486	0.026245
962.62	0.0282026
962.754	0.0274685
962.888	0.0274073
963.022	0.0271626
963.156	0.0272238
963.29	0.0271014
963.424	0.0265508
963.558	0.027652
963.692	0.0282638
963.826	0.0277744
963.96	0.0273461
964.094	0.027652
964.228	0.0274685
964.362	0.0275297
964.496	0.0267955
964.63	0.0283861
964.764	0.0271014
964.898	0.0279579
965.032	0.0275908
965.166	0.0272238
965.3	0.0258779
965.434	0.0281414
965.568	0.0271014
965.702	0.0283861
965.836	0.0278356
965.97	0.0269179
966.104	0.0275297
966.238	0.0272238
966.372	0.0280191
966.506	0.0269179
966.64	0.0274685
966.774	0.0267955
966.908	0.0261838
967.043	0.028325
967.177	0.0271014
967.311	0.0269179
967.445	0.0272238
967.579	0.0271014
967.713	0.028325
967.847	0.0275297
967.981	0.0269791
968.115	0.027285
968.249	0.0277744
968.383	0.027285
968.517	0.0268567
968.651	0.027285
968.785	0.0265508
968.919	0.0269179
969.053	0.0274073
969.187	0.0277132
969.321	0.027652
969.455	0.0274685
969.589	0.0270403
969.723	0.027285
969.857	0.0278356
969.991	0.0271014
970.125	0.0275297
970.259	0.0271626
970.393	0.0271626
970.527	0.0267955
970.661	0.0280191
970.795	0.0270403
970.929	0.0277744
971.063	0.0274073
971.197	0.0265508
971.331	0.0274073
971.465	0.0275297
971.599	0.0266732
971.733	0.0271626
971.867	0.0267344
972.001	0.0269179
972.135	0.0272238
972.269	0.0269791
972.403	0.0277744
972.537	0.0283861
972.671	0.0271626
972.805	0.0277744
972.939	0.0275297
973.073	0.0278356
973.207	0.0263061
973.341	0.0274685
973.475	0.0270403
973.609	0.0269179
973.743	0.027285
973.877	0.0283861
974.011	0.0275908
974.145	0.0272238
974.279	0.027652
974.413	0.0282638
974.547	0.0270403
974.681	0.027652
974.815	0.028325
974.949	0.0274685
975.083	0.0273461
975.217	0.0278356
975.351	0.0270403
975.485	0.0267344
975.619	0.0272238
975.753	0.0271626
975.887	0.0275908
976.021	0.0275908
976.155	0.0269179
976.289	0.0278356
976.423	0.0277132
976.557	0.0283861
976.691	0.0285085
976.825	0.0267344
976.959	0.0278356
977.093	0.0280803
977.227	0.0277132
977.361	0.0279579
977.495	0.0274685
977.629	0.0273461
977.763	0.0275297
977.897	0.0280191
978.031	0.0275908
978.165	0.0271014
978.299	0.0271014
978.433	0.0277744
978.567	0.0267955
978.701	0.0280803
978.835	0.0281414
978.969	0.027652
979.103	0.0266732
979.237	0.0271626
979.371	0.0271014
979.505	0.027652
979.639	0.026612
979.773	0.0273461
979.907	0.0280803
980.041	0.027285
980.175	0.0271626
980.308	0.0275297
980.442	0.0266732
980.576	0.0277132
980.71	0.0278967
980.844	0.0269791
980.978	0.0267955
981.112	0.0271626
981.246	0.0267955
981.38	0.027285
981.514	0.0266732
981.648	0.0281414
981.782	0.0274685
981.916	0.0270403
982.05	0.0274073
982.184	0.0273461
982.318	0.0277744
982.452	0.0275297
982.586	0.0267955
982.72	0.0270403
982.854	0.027652
982.988	0.0266732
983.122	0.0267955
983.256	0.0269791
983.39	0.0277132
983.524	0.0270403
983.658	0.0272238
983.792	0.0280191
983.926	0.0269179
984.06	0.0280803
984.194	0.0277744
984.328	0.0270403
984.462	0.0274073
984.596	0.0272238
984.73	0.0267955
984.864	0.026612
984.998	0.027285
985.132	0.0273461
985.265	0.026612
985.399	0.0269791
985.533	0.0269179
985.667	0.0277744
985.801	0.0272238
985.935	0.0273461
986.069	0.0274073
986.203	0.0275297
986.337	0.0274685
986.471	0.0275297
986.605	0.0270403
986.739	0.0275297
986.873	0.0269791
987.007	0.0280191
987.141	0.0274073
987.275	0.0277132
987.409	0.0278967
987.543	0.0271014
987.677	0.0274685
987.811	0.028325
987.945	0.0269791
988.079	0.027285
988.213	0.0275297
988.347	0.0279579
988.481	0.0277744
988.614	0.0282638
988.748	0.0275297
988.882	0.0275297
989.016	0.0275908
989.15	0.0273461
989.284	0.0269791
989.418	0.0263673
989.552	0.028692
989.686	0.0280803
989.82	0.0275908
989.954	0.0267955
990.088	0.0269791
990.222	0.0271014
990.356	0.0280191
990.49	0.0277744
990.624	0.0266732
990.758	0.0278356
990.892	0.027285
991.026	0.0277132
991.16	0.0265508
991.294	0.0278967
991.427	0.0272238
991.561	0.027285
991.695	0.0277744
991.829	0.0271626
991.963	0.0270403
992.097	0.0277132
992.231	0.0271626
992.365	0.0279579
992.499	0.0277132
992.633	0.0271014
992.767	0.0271626
992.901	0.0278356
993.035	0.0273461
993.169	0.0281414
993.303	0.0271626
993.437	0.0267955
993.571	0.0275297
993.704	0.0266732
993.838	0.0269791
993.972	0.0268567
994.106	0.0265508
994.24	0.027285
994.374	0.0277744
994.508	0.0278967
994.642	0.0271014
994.776	0.0281414
994.91	0.0272238
995.044	0.027285
995.178	0.0272238
995.312	0.0275908
995.446	0.0274685
995.58	0.0264897
995.714	0.0278356
995.847	0.0281414
995.981	0.0271626
996.115	0.0277132
996.249	0.0269791
996.383	0.0283861
996.517	0.0275297
996.651	0.0278967
996.785	0.0270403
996.919	0.0269179
997.053	0.0270403
997.187	0.0273461
997.321	0.0268567
997.455	0.026612
997.589	0.0275908
997.722	0.027285
997.856	0.0268567
997.99	0.0279579
998.124	0.0278967
998.258	0.0269791
998.392	0.0271626
998.526	0.0277132
998.66	0.0284473
998.794	0.0271626
998.928	0.0280803
999.062	0.027285
999.196	0.0275297
999.33	0.0273461
999.464	0.027285
999.597	0.027652
999.731	0.0272238
999.865	0.0281414
999.999	0.0270403
1000.13	0.0279579
1000.27	0.0275908
1000.4	0.0275908
1000.53	0.028325
1000.67	0.0265508
1000.8	0.0270403
1000.94	0.0280803
1001.07	0.0266732
1001.2	0.0268567
1001.34	0.0275297
1001.47	0.0274073
1001.61	0.027285
1001.74	0.0268567
1001.87	0.0274073
1002.01	0.0273461
1002.14	0.0281414
1002.28	0.0271626
1002.41	0.0274685
1002.54	0.0275908
1002.68	0.026612
1002.81	0.0264285
1002.95	0.0267955
1003.08	0.0265508
1003.21	0.0264285
1003.35	0.0278356
1003.48	0.027285
1003.61	0.0278356
1003.75	0.0278967
1003.88	0.0282026
1004.02	0.0265508
1004.15	0.027652
1004.28	0.0272238
1004.42	0.0280803
1004.55	0.0269791
1004.69	0.0275908
1004.82	0.0277744
1004.95	0.0280191
1005.09	0.0277132
1005.22	0.0268567
1005.36	0.0280803
1005.49	0.0278356
1005.62	0.0280803
1005.76	0.0275297
1005.89	0.0282026
1006.03	0.027285
1006.16	0.0275908
1006.29	0.0275297
1006.43	0.0278356
1006.56	0.0271014
1006.69	0.0274073
1006.83	0.0283861
1006.96	0.0271014
1007.1	0.0272238
1007.23	0.0277132
1007.36	0.0277744
1007.5	0.0272238
1007.63	0.0277132
1007.77	0.0272238
1007.9	0.0269179
1008.03	0.0271626
1008.17	0.0278967
1008.3	0.0267955
1008.44	0.0274073
1008.57	0.0274073
1008.7	0.0264897
1008.84	0.0268567
1008.97	0.0274073
1009.1	0.0267344
1009.24	0.0275297
1009.37	0.0280803
1009.51	0.0271626
1009.64	0.0278356
1009.77	0.0275908
1009.91	0.0283861
1010.04	0.0272238
1010.18	0.0274073
1010.31	0.0275908
1010.44	0.0280191
1010.58	0.026612
1010.71	0.0279579
1010.85	0.0277744
1010.98	0.0268567
1011.11	0.0275297
1011.25	0.0277744
1011.38	0.0277132
1011.51	0.0270403
1011.65	0.0270403
1011.78	0.0273461
1011.92	0.027652
1012.05	0.0273461
1012.18	0.0273461
1012.32	0.0277132
1012.45	0.0280803
1012.59	0.0269791
1012.72	0.0267344
1012.85	0.0270403
1012.99	0.0275908
1013.12	0.0274073
1013.26	0.0271014
1013.39	0.0274685
1013.52	0.0261226
1013.66	0.0271626
1013.79	0.0267955
1013.92	0.0272238
1014.06	0.0268567
1014.19	0.0278356
1014.33	0.028325
1014.46	0.0264285
1014.59	0.0274073
1014.73	0.027652
1014.86	0.0277132
1015	0.0277132
1015.13	0.0279579
1015.26	0.0270403
1015.4	0.0267955
1015.53	0.0274073
1015.67	0.0269179
1015.8	0.0271626
1015.93	0.0275908
1016.07	0.0269791
1016.2	0.0274073
1016.33	0.0275297
1016.47	0.0277744
1016.6	0.0278967
1016.74	0.0280191
1016.87	0.0264897
1017	0.0278967
1017.14	0.0272238
1017.27	0.0271626
1017.41	0.0263673
1017.54	0.0263061
1017.67	0.0275297
1017.81	0.0270403
1017.94	0.0273461
1018.07	0.0272238
1018.21	0.0275908
1018.34	0.0268567
1018.48	0.0275297
1018.61	0.027285
1018.74	0.0270403
1018.88	0.0280191
1019.01	0.0277744
1019.15	0.0272238
1019.28	0.026612
1019.41	0.0268567
1019.55	0.0271014
1019.68	0.0278967
1019.82	0.027652
1019.95	0.0278356
1020.08	0.0280191
1020.22	0.0279579
1020.35	0.0275908
1020.48	0.0278967
1020.62	0.0275908
1020.75	0.0267344
1020.89	0.0274073
1021.02	0.0275908
1021.15	0.026612
1021.29	0.0279579
1021.42	0.0272238
1021.56	0.0268567
1021.69	0.0270403
1021.82	0.0277132
1021.96	0.027285
1022.09	0.0275297
1022.22	0.0273461
1022.36	0.0265508
1022.49	0.028325
1022.63	0.0271014
1022.76	0.027285
1022.89	0.0272238
1023.03	0.0271626
1023.16	0.0270403
1023.3	0.0269179
1023.43	0.0271014
1023.56	0.0269179
1023.7	0.0278967
1023.83	0.0271014
1023.96	0.0280803
1024.1	0.0269791
1024.23	0.0278356
1024.37	0.0278356
1024.5	0.0275297
1024.63	0.027285
1024.77	0.0266732
1024.9	0.0269179
1025.04	0.0274073
1025.17	0.0271014
1025.3	0.0264897
1025.44	0.0275908
1025.57	0.0270403
1025.7	0.0271626
1025.84	0.027285
1025.97	0.0277744
1026.11	0.0275908
1026.24	0.0273461
1026.37	0.0271014
1026.51	0.0279579
1026.64	0.0275908
1026.78	0.0267955
1026.91	0.027652
1027.04	0.0260002
1027.18	0.0277132
1027.31	0.0271626
1027.44	0.0278967
1027.58	0.027652
1027.71	0.0280191
1027.85	0.0269791
1027.98	0.0269791
1028.11	0.0261838
1028.25	0.0272238
1028.38	0.0267344
1028.52	0.026612
1028.65	0.0277744
1028.78	0.0281414
1028.92	0.0280191
1029.05	0.0283861
1029.18	0.027285
1029.32	0.0267955
1029.45	0.0267344
1029.59	0.0275908
1029.72	0.0274685
1029.85	0.027285
1029.99	0.0278967
1030.12	0.0278356
1030.26	0.0277744
1030.39	0.0269179
1030.52	0.0282026
1030.66	0.0279579
1030.79	0.0277744
1030.92	0.0271014
1031.06	0.0277744
1031.19	0.0266732
1031.33	0.0272238
1031.46	0.0279579
1031.59	0.0269791
1031.73	0.0275908
1031.86	0.0275908
1031.99	0.0268567
1032.13	0.0269179
1032.26	0.0274685
1032.4	0.0277744
1032.53	0.0277132
1032.66	0.0273461
1032.8	0.0271014
1032.93	0.027285
1033.07	0.0274685
1033.2	0.0272238
1033.33	0.0268567
1033.47	0.0263673
1033.6	0.0268567
1033.73	0.0278967
1033.87	0.0278967
1034	0.0267955
1034.14	0.0269179
1034.27	0.0278967
1034.4	0.0271014
1034.54	0.0277132
1034.67	0.0271014
1034.81	0.0272238
1034.94	0.028325
1035.07	0.0270403
1035.21	0.0267344
1035.34	0.0274685
1035.47	0.0274073
1035.61	0.0269791
1035.74	0.0273461
1035.88	0.0280803
1036.01	0.0271014
1036.14	0.0265508
1036.28	0.0272238
1036.41	0.0268567
1036.54	0.0261226
1036.68	0.0277744
1036.81	0.0269791
1036.95	0.0271014
1037.08	0.0272238
1037.21	0.0270403
1037.35	0.0271626
1037.48	0.027652
1037.62	0.027652
1037.75	0.0274073
1037.88	0.0275297
1038.02	0.0278356
1038.15	0.0268567
1038.28	0.0275908
1038.42	0.0268567
1038.55	0.0270403
1038.69	0.0268567
1038.82	0.0273461
1038.95	0.027285
1039.09	0.0275297
1039.22	0.0273461
1039.35	0.0269791
1039.49	0.0279579
1039.62	0.0269791
1039.76	0.0269179
1039.89	0.0278356
1040.02	0.0271626
1040.16	0.0274685
1040.29	0.0274073
1040.43	0.0277744
1040.56	0.0279579
1040.69	0.0274685
1040.83	0.0275908
1040.96	0.0269179
1041.09	0.0273461
1041.23	0.0267955
1041.36	0.0278967
1041.5	0.0280803
1041.63	0.0272238
1041.76	0.0271626
1041.9	0.026612
1042.03	0.0270403
1042.16	0.0275908
1042.3	0.027285
1042.43	0.028692
1042.57	0.0274685
1042.7	0.0271626
1042.83	0.0275297
1042.97	0.0269179
1043.1	0.0268567
1043.23	0.027285
1043.37	0.0264897
1043.5	0.0275297
1043.64	0.0271626
1043.77	0.026612
1043.9	0.0280803
1044.04	0.0264285
1044.17	0.0266732
1044.31	0.0275297
1044.44	0.0273461
1044.57	0.027285
1044.71	0.027285
1044.84	0.0274073
1044.97	0.0282638
1045.11	0.0278967
1045.24	0.0274685
1045.38	0.0274073
1045.51	0.0277744
1045.64	0.0270403
1045.78	0.0270403
1045.91	0.0278967
1046.04	0.0279579
1046.18	0.0275297
1046.31	0.0278356
1046.45	0.0278356
1046.58	0.0273461
1046.71	0.0273461
1046.85	0.027652
1046.98	0.0277744
1047.11	0.0280191
1047.25	0.0273461
1047.38	0.0272238
1047.52	0.0267955
1047.65	0.0275908
1047.78	0.0271626
1047.92	0.0277744
1048.05	0.0273461
1048.18	0.027285
1048.32	0.0277132
1048.45	0.0275908
1048.59	0.0275297
1048.72	0.0267955
1048.85	0.0272238
1048.99	0.0280191
1049.12	0.0271626
1049.25	0.0269179
1049.39	0.0275908
1049.52	0.0271014
1049.66	0.0271014
1049.79	0.0278967
1049.92	0.0274073
1050.06	0.0280191
1050.19	0.0269791
1050.33	0.0270403
1050.46	0.0280803
1050.59	0.0272238
1050.73	0.0266732
1050.86	0.0277744
1050.99	0.0280191
1051.13	0.0269791
1051.26	0.0283861
1051.4	0.0271014
1051.53	0.0270403
1051.66	0.0265508
1051.8	0.0274685
1051.93	0.0281414
1052.06	0.0275908
1052.2	0.0277132
1052.33	0.0273461
1052.47	0.027652
1052.6	0.0274685
1052.73	0.0283861
1052.87	0.027652
1053	0.0274073
1053.13	0.0261838
1053.27	0.027652
1053.4	0.027652
1053.54	0.0271014
1053.67	0.0278967
1053.8	0.0278967
1053.94	0.027285
1054.07	0.0282026
1054.2	0.0279579
1054.34	0.0274685
1054.47	0.0271626
1054.61	0.0274073
1054.74	0.0277744
1054.87	0.0277744
1055.01	0.0280803
1055.14	0.0267955
1055.27	0.0278967
1055.41	0.0258779
1055.54	0.0266732
1055.68	0.0278356
1055.81	0.0274073
1055.94	0.027652
1056.08	0.0275908
1056.21	0.0270403
1056.34	0.0278967
1056.48	0.0271626
1056.61	0.0280191
1056.75	0.0267955
1056.88	0.0271626
1057.01	0.0269791
1057.15	0.025572
1057.28	0.0275297
1057.41	0.0268567
1057.55	0.0272238
1057.68	0.0274685
1057.82	0.027285
1057.95	0.0270403
1058.08	0.0271014
1058.22	0.0266732
1058.35	0.0278967
1058.48	0.0266732
1058.62	0.0279579
1058.75	0.0274073
1058.89	0.0275908
1059.02	0.0277132
1059.15	0.0277744
1059.29	0.0274685
1059.42	0.0269791
1059.55	0.0274073
1059.69	0.0278967
1059.82	0.0269791
1059.96	0.0273461
1060.09	0.0271014
1060.22	0.0273461
1060.36	0.0282638
1060.49	0.027285
1060.62	0.0275297
1060.76	0.026612
1060.89	0.0277744
1061.03	0.0268567
1061.16	0.0273461
1061.29	0.0274073
1061.43	0.0280803
1061.56	0.0277744
1061.69	0.0270403
1061.83	0.0273461
1061.96	0.0272238
1062.1	0.027285
1062.23	0.0269179
1062.36	0.0264285
1062.5	0.0279579
1062.63	0.0280191
1062.76	0.0277744
1062.9	0.0267955
1063.03	0.0275297
1063.17	0.0268567
1063.3	0.0269791
1063.43	0.027285
1063.57	0.0277744
1063.7	0.0274685
1063.83	0.0271014
1063.97	0.0274073
1064.1	0.026612
1064.23	0.0277132
1064.37	0.0274073
1064.5	0.0268567
1064.64	0.0272238
1064.77	0.0282638
1064.9	0.0271626
1065.04	0.0269179
1065.17	0.0284473
1065.3	0.0280191
1065.44	0.027652
1065.57	0.0280191
1065.71	0.0268567
1065.84	0.0278356
1065.97	0.0275908
1066.11	0.0279579
1066.24	0.027652
1066.37	0.0273461
1066.51	0.0271014
1066.64	0.0271014
1066.78	0.0277744
1066.91	0.027285
1067.04	0.0263673
1067.18	0.0271014
1067.31	0.0275908
1067.44	0.0274073
1067.58	0.0275908
1067.71	0.0282638
1067.85	0.0275908
1067.98	0.0267344
1068.11	0.0270403
1068.25	0.0278356
1068.38	0.0269791
1068.51	0.0271014
1068.65	0.0268567
1068.78	0.0274685
1068.92	0.0274685
1069.05	0.0277132
1069.18	0.027285
1069.32	0.027285
1069.45	0.0278967
1069.58	0.0271014
1069.72	0.0266732
1069.85	0.027652
1069.98	0.0279579
1070.12	0.0271014
1070.25	0.027285
1070.39	0.0277744
1070.52	0.0269791
1070.65	0.0273461
1070.79	0.0277132
1070.92	0.0270403
1071.05	0.0263061
1071.19	0.0275297
1071.32	0.0271014
1071.46	0.0277132
1071.59	0.0278967
1071.72	0.0275908
1071.86	0.0271626
1071.99	0.0274685
1072.12	0.027285
1072.26	0.0267955
1072.39	0.0275297
1072.53	0.0278967
1072.66	0.0274685
1072.79	0.0271626
1072.93	0.0275908
1073.06	0.027285
1073.19	0.0275297
1073.33	0.027285
1073.46	0.0274685
1073.59	0.0277132
1073.73	0.0263673
1073.86	0.026612
1074	0.0278967
1074.13	0.027285
1074.26	0.0268567
1074.4	0.0278967
1074.53	0.027285
1074.66	0.0275908
1074.8	0.0279579
1074.93	0.0274073
1075.07	0.027285
1075.2	0.0277744
1075.33	0.0273461
1075.47	0.0273461
1075.6	0.0282638
1075.73	0.0277132
1075.87	0.0272238
1076	0.0281414
1076.14	0.0268567
1076.27	0.0272238
1076.4	0.0280191
1076.54	0.0274685
1076.67	0.0269179
1076.8	0.0282026
1076.94	0.0277132
1077.07	0.0261838
1077.2	0.0274073
1077.34	0.0266732
1077.47	0.0270403
1077.61	0.0277744
1077.74	0.0270403
1077.87	0.0269791
1078.01	0.0270403
1078.14	0.0278356
1078.27	0.0270403
1078.41	0.027652
1078.54	0.0275297
1078.68	0.0280803
1078.81	0.0277132
1078.94	0.0277744
1079.08	0.0272238
1079.21	0.027285
1079.34	0.0270403
1079.48	0.0287532
1079.61	0.0275297
1079.74	0.0275297
1079.88	0.028325
1080.01	0.0265508
1080.15	0.0277132
1080.28	0.0275908
1080.41	0.0267955
1080.55	0.0274073
1080.68	0.0284473
1080.81	0.026612
1080.95	0.027652
1081.08	0.0275297
1081.22	0.0269791
1081.35	0.0274073
1081.48	0.0282026
1081.62	0.0268567
1081.75	0.0273461
1081.88	0.0273461
1082.02	0.0264285
1082.15	0.0272238
1082.28	0.0278356
1082.42	0.0282026
1082.55	0.0278356
1082.69	0.0273461
1082.82	0.0282026
1082.95	0.0264285
1083.09	0.027652
1083.22	0.0271014
1083.35	0.0278356
1083.49	0.0277132
1083.62	0.0266732
1083.75	0.0270403
1083.89	0.0269179
1084.02	0.0277132
1084.16	0.0278967
1084.29	0.0271014
1084.42	0.0270403
1084.56	0.0273461
1084.69	0.028325
1084.82	0.0280191
1084.96	0.0273461
1085.09	0.0277132
1085.23	0.0275908
1085.36	0.0268567
1085.49	0.0272238
1085.63	0.0282638
1085.76	0.0282638
1085.89	0.0277132
1086.03	0.026612
1086.16	0.0271014
1086.29	0.0277132
1086.43	0.0272238
1086.56	0.0274073
1086.7	0.0281414
1086.83	0.0277132
1086.96	0.0274685
1087.1	0.0266732
1087.23	0.0274073
1087.36	0.027285
1087.5	0.0274685
1087.63	0.0278356
1087.76	0.0278356
1087.9	0.0275908
1088.03	0.0277132
1088.17	0.0273461
1088.3	0.0271626
1088.43	0.0277132
1088.57	0.026612
1088.7	0.0275297
1088.83	0.0275297
1088.97	0.027652
1089.1	0.028325
1089.24	0.0271014
1089.37	0.0268567
1089.5	0.0269791
1089.64	0.0278967
1089.77	0.0274685
1089.9	0.0273461
1090.04	0.0281414
1090.17	0.0270403
1090.3	0.0278356
1090.44	0.0274073
1090.57	0.0279579
1090.71	0.0261226
1090.84	0.0281414
1090.97	0.0281414
1091.11	0.0285697
1091.24	0.0268567
1091.37	0.026612
1091.51	0.026612
1091.64	0.0281414
1091.77	0.0277744
1091.91	0.0278356
1092.04	0.0277132
1092.18	0.0271014
1092.31	0.0271626
1092.44	0.0274073
1092.58	0.0273461
1092.71	0.0278967
1092.84	0.0267955
1092.98	0.027652
1093.11	0.0275908
1093.24	0.0272238
1093.38	0.0264897
1093.51	0.0273461
1093.65	0.0267955
1093.78	0.0275297
1093.91	0.027652
1094.05	0.0275908
1094.18	0.0274685
1094.31	0.0271014
1094.45	0.0279579
1094.58	0.0275908
1094.71	0.0274073
1094.85	0.0277744
1094.98	0.0270403
1095.12	0.0271626
1095.25	0.0274073
1095.38	0.0274685
1095.52	0.0267344
1095.65	0.0280803
1095.78	0.0272238
1095.92	0.0267344
1096.05	0.0271014
1096.18	0.0281414
1096.32	0.027285
1096.45	0.0271014
1096.59	0.0282638
1096.72	0.0275908
1096.85	0.0275908
1096.99	0.027285
1097.12	0.0277744
1097.25	0.0281414
1097.39	0.027285
1097.52	0.0269179
1097.65	0.0269791
1097.79	0.0274073
1097.92	0.0281414
1098.06	0.0267344
1098.19	0.0265508
1098.32	0.0275297
1098.46	0.027652
1098.59	0.0272238
1098.72	0.026612
1098.86	0.0275908
1098.99	0.0271626
1099.12	0.0277132
1099.26	0.0269791
1099.39	0.0280803
1099.53	0.027652
1099.66	0.0282026
1099.79	0.0266732
1099.93	0.0272238
1100.06	0.0263673
1100.19	0.0274073
1100.33	0.0272238
1100.46	0.0268567
1100.59	0.0278356
1100.73	0.0275297
1100.86	0.0278356
1100.99	0.0277132
1101.13	0.027652
1101.26	0.0274685
1101.4	0.0271626
1101.53	0.0269179
1101.66	0.0274685
1101.8	0.0274073
1101.93	0.0271014
1102.06	0.0280191
1102.2	0.0277132
1102.33	0.0278967
1102.46	0.0280191
1102.6	0.0274073
1102.73	0.027285
1102.87	0.0278356
1103	0.0275297
1103.13	0.0278967
1103.27	0.0272238
1103.4	0.0273461
1103.53	0.0272238
1103.67	0.027652
1103.8	0.0275297
1103.93	0.0278356
1104.07	0.026612
1104.2	0.0282638
1104.34	0.0273461
1104.47	0.0277744
1104.6	0.027652
1104.74	0.0269791
1104.87	0.0277744
1105	0.0277132
1105.14	0.0280803
1105.27	0.0285085
1105.4	0.0274073
1105.54	0.0275297
1105.67	0.0275908
1105.8	0.0274073
1105.94	0.0269179
1106.07	0.0279579
1106.21	0.026612
1106.34	0.0278356
1106.47	0.0265508
1106.61	0.0277744
1106.74	0.0283861
1106.87	0.0270403
1107.01	0.0279579
1107.14	0.0273461
1107.27	0.0264285
1107.41	0.0275908
1107.54	0.0280191

