Source: Spectrum Viewer

Chart: Pulse Spectrum

Series: 
Wavelength (nm)	S (a.u.)
617.638	0.13811
617.773	0.134451
617.908	0.135976
618.043	0.13628
618.178	0.135671
618.313	0.13689
618.448	0.135976
618.583	0.139024
618.718	0.135061
618.853	0.135366
618.988	0.137805
619.123	0.131707
619.258	0.133537
619.394	0.138415
619.529	0.1375
619.664	0.138415
619.799	0.133841
619.934	0.1375
620.069	0.13689
620.204	0.134146
620.339	0.137195
620.474	0.133841
620.609	0.132317
620.744	0.135061
620.879	0.139939
621.014	0.13872
621.149	0.13689
621.284	0.135976
621.419	0.135976
621.554	0.132012
621.689	0.138415
621.825	0.13628
621.96	0.139939
622.095	0.135976
622.23	0.134146
622.365	0.136585
622.5	0.136585
622.635	0.13811
622.77	0.140244
622.905	0.132317
623.04	0.13811
623.175	0.134451
623.31	0.135976
623.445	0.134451
623.58	0.142073
623.715	0.133537
623.85	0.13872
623.985	0.131402
624.12	0.136585
624.255	0.133537
624.39	0.135061
624.525	0.135671
624.661	0.136585
624.796	0.138415
624.931	0.134451
625.066	0.13689
625.201	0.132622
625.336	0.137195
625.471	0.13872
625.606	0.135671
625.741	0.136585
625.876	0.1375
626.011	0.133232
626.146	0.134756
626.281	0.135976
626.416	0.135366
626.551	0.132317
626.686	0.13689
626.821	0.141159
626.956	0.13689
627.091	0.133537
627.226	0.135061
627.361	0.134756
627.496	0.13872
627.631	0.139024
627.766	0.13872
627.901	0.134451
628.036	0.135061
628.171	0.135061
628.307	0.134451
628.442	0.13628
628.577	0.135061
628.712	0.1375
628.847	0.134146
628.982	0.13628
629.117	0.132927
629.252	0.132927
629.387	0.135976
629.522	0.137195
629.657	0.13872
629.792	0.139329
629.927	0.132317
630.062	0.133232
630.197	0.135061
630.332	0.139329
630.467	0.135671
630.602	0.135061
630.737	0.1375
630.872	0.137805
631.007	0.135366
631.142	0.137195
631.277	0.137195
631.412	0.139634
631.547	0.138415
631.682	0.135061
631.817	0.13811
631.952	0.133232
632.087	0.138415
632.222	0.132317
632.357	0.133537
632.492	0.13689
632.627	0.134146
632.762	0.135366
632.897	0.134146
633.032	0.130183
633.167	0.139024
633.302	0.139329
633.437	0.137805
633.572	0.133537
633.707	0.134451
633.842	0.132927
633.978	0.135366
634.113	0.134146
634.248	0.136585
634.383	0.134146
634.518	0.13689
634.653	0.13872
634.788	0.135366
634.923	0.13628
635.058	0.135671
635.193	0.134756
635.328	0.134756
635.463	0.136585
635.598	0.135061
635.733	0.137805
635.868	0.13872
636.003	0.134756
636.138	0.132927
636.273	0.138415
636.408	0.135976
636.543	0.134451
636.678	0.13811
636.813	0.130793
636.948	0.137805
637.083	0.132927
637.218	0.134146
637.353	0.138415
637.488	0.135366
637.623	0.133841
637.758	0.13872
637.893	0.134756
638.028	0.136585
638.163	0.13628
638.298	0.135061
638.433	0.13628
638.568	0.140549
638.703	0.134756
638.838	0.135976
638.973	0.139634
639.108	0.135976
639.243	0.134451
639.378	0.140244
639.513	0.135366
639.648	0.135061
639.783	0.134451
639.918	0.137805
640.053	0.13872
640.188	0.137805
640.323	0.13628
640.458	0.135061
640.593	0.135671
640.728	0.139329
640.863	0.132927
640.998	0.134756
641.133	0.13628
641.268	0.138415
641.403	0.135976
641.538	0.133537
641.673	0.133841
641.808	0.132012
641.943	0.131098
642.078	0.1375
642.213	0.13811
642.348	0.135976
642.483	0.13628
642.618	0.137195
642.753	0.133841
642.888	0.131402
643.023	0.140854
643.158	0.132622
643.293	0.131402
643.428	0.137195
643.563	0.136585
643.698	0.137805
643.833	0.139329
643.968	0.137805
644.103	0.13689
644.237	0.135061
644.372	0.134146
644.507	0.13872
644.642	0.1375
644.777	0.140244
644.912	0.130183
645.047	0.134146
645.182	0.135366
645.317	0.132012
645.452	0.138415
645.587	0.136585
645.722	0.139024
645.857	0.134756
645.992	0.137805
646.127	0.137805
646.262	0.135671
646.397	0.133537
646.532	0.1375
646.667	0.137195
646.802	0.135976
646.937	0.137805
647.072	0.138415
647.207	0.134146
647.342	0.13628
647.477	0.136585
647.612	0.1375
647.747	0.139329
647.882	0.13628
648.017	0.134451
648.152	0.140549
648.287	0.137805
648.422	0.133841
648.557	0.133537
648.692	0.1375
648.827	0.1375
648.962	0.136585
649.097	0.134146
649.232	0.135976
649.367	0.135366
649.502	0.1375
649.637	0.138415
649.772	0.138415
649.906	0.133841
650.041	0.137805
650.176	0.135671
650.311	0.135976
650.446	0.137195
650.581	0.134451
650.716	0.134146
650.851	0.139024
650.986	0.135366
651.121	0.135976
651.256	0.133232
651.391	0.134451
651.526	0.133537
651.661	0.135671
651.796	0.135061
651.931	0.139634
652.066	0.137805
652.201	0.134756
652.336	0.13811
652.471	0.139024
652.606	0.138415
652.741	0.133537
652.876	0.134756
653.011	0.132927
653.146	0.13811
653.281	0.135671
653.415	0.139634
653.55	0.134451
653.685	0.140854
653.82	0.136585
653.955	0.137805
654.09	0.1375
654.225	0.139024
654.36	0.139939
654.495	0.132622
654.63	0.135976
654.765	0.135976
654.9	0.133537
655.035	0.134146
655.17	0.1375
655.305	0.13811
655.44	0.13689
655.575	0.133232
655.71	0.1375
655.845	0.135976
655.98	0.133537
656.115	0.133232
656.25	0.139634
656.384	0.13689
656.519	0.134451
656.654	0.133537
656.789	0.133841
656.924	0.135976
657.059	0.135061
657.194	0.134756
657.329	0.137195
657.464	0.135366
657.599	0.137805
657.734	0.133537
657.869	0.139329
658.004	0.136585
658.139	0.137805
658.274	0.135061
658.409	0.135061
658.544	0.13872
658.679	0.13689
658.813	0.130793
658.948	0.139024
659.083	0.136585
659.218	0.137805
659.353	0.13811
659.488	0.13628
659.623	0.1375
659.758	0.133841
659.893	0.133537
660.028	0.135671
660.163	0.132622
660.298	0.135671
660.433	0.132622
660.568	0.135671
660.703	0.13872
660.838	0.136585
660.972	0.13628
661.107	0.13628
661.242	0.137805
661.377	0.135671
661.512	0.13628
661.647	0.13689
661.782	0.138415
661.917	0.139024
662.052	0.136585
662.187	0.13689
662.322	0.133841
662.457	0.133537
662.592	0.13628
662.727	0.133537
662.862	0.136585
662.996	0.133841
663.131	0.133537
663.266	0.135976
663.401	0.132317
663.536	0.133841
663.671	0.139634
663.806	0.135061
663.941	0.139024
664.076	0.135976
664.211	0.139024
664.346	0.132622
664.481	0.13811
664.616	0.130488
664.75	0.1375
664.885	0.135976
665.02	0.133537
665.155	0.133537
665.29	0.131402
665.425	0.1375
665.56	0.137805
665.695	0.137195
665.83	0.134146
665.965	0.1375
666.1	0.13628
666.235	0.132927
666.37	0.132317
666.504	0.140244
666.639	0.13872
666.774	0.130183
666.909	0.134146
667.044	0.132927
667.179	0.13872
667.314	0.13689
667.449	0.139939
667.584	0.138415
667.719	0.13872
667.854	0.135976
667.989	0.137805
668.123	0.132622
668.258	0.133232
668.393	0.135976
668.528	0.13628
668.663	0.131098
668.798	0.13628
668.933	0.135061
669.068	0.1375
669.203	0.133232
669.338	0.136585
669.473	0.132927
669.607	0.135061
669.742	0.131707
669.877	0.134756
670.012	0.138415
670.147	0.135976
670.282	0.133841
670.417	0.139634
670.552	0.133841
670.687	0.134756
670.822	0.136585
670.957	0.13872
671.091	0.133841
671.226	0.1375
671.361	0.13811
671.496	0.132317
671.631	0.138415
671.766	0.137195
671.901	0.131707
672.036	0.13872
672.171	0.1375
672.306	0.135671
672.44	0.135671
672.575	0.13689
672.71	0.13628
672.845	0.134146
672.98	0.139329
673.115	0.133537
673.25	0.13628
673.385	0.135061
673.52	0.134451
673.655	0.142378
673.789	0.139024
673.924	0.13628
674.059	0.136585
674.194	0.133232
674.329	0.135976
674.464	0.139024
674.599	0.139634
674.734	0.134756
674.869	0.134756
675.003	0.13628
675.138	0.137195
675.273	0.135366
675.408	0.13628
675.543	0.13811
675.678	0.135061
675.813	0.133537
675.948	0.13689
676.083	0.132317
676.217	0.1375
676.352	0.138415
676.487	0.1375
676.622	0.133841
676.757	0.134146
676.892	0.132317
677.027	0.139329
677.162	0.135366
677.297	0.137805
677.431	0.137195
677.566	0.13811
677.701	0.1375
677.836	0.132927
677.971	0.133232
678.106	0.135061
678.241	0.13811
678.376	0.13872
678.511	0.13811
678.645	0.136585
678.78	0.13689
678.915	0.13628
679.05	0.134451
679.185	0.135366
679.32	0.135061
679.455	0.136585
679.59	0.140549
679.724	0.135976
679.859	0.132622
679.994	0.13628
680.129	0.132622
680.264	0.136585
680.399	0.132012
680.534	0.135976
680.669	0.13689
680.803	0.13689
680.938	0.136585
681.073	0.135671
681.208	0.135366
681.343	0.133537
681.478	0.134756
681.613	0.136585
681.748	0.139329
681.882	0.13628
682.017	0.134756
682.152	0.13872
682.287	0.1375
682.422	0.134451
682.557	0.134146
682.692	0.13689
682.827	0.13689
682.961	0.138415
683.096	0.13689
683.231	0.135366
683.366	0.135671
683.501	0.135671
683.636	0.133537
683.771	0.134756
683.906	0.135976
684.04	0.140549
684.175	0.132317
684.31	0.13689
684.445	0.132317
684.58	0.135061
684.715	0.134146
684.85	0.137805
684.984	0.135366
685.119	0.133841
685.254	0.131402
685.389	0.13689
685.524	0.137805
685.659	0.136585
685.794	0.135061
685.928	0.136585
686.063	0.135671
686.198	0.1375
686.333	0.135671
686.468	0.135671
686.603	0.134146
686.738	0.135976
686.872	0.134146
687.007	0.135671
687.142	0.135061
687.277	0.140549
687.412	0.135976
687.547	0.135366
687.682	0.138415
687.816	0.13811
687.951	0.137195
688.086	0.131098
688.221	0.13628
688.356	0.135366
688.491	0.135061
688.626	0.139634
688.76	0.134451
688.895	0.135061
689.03	0.135976
689.165	0.134451
689.3	0.133537
689.435	0.13811
689.57	0.134756
689.704	0.135976
689.839	0.137805
689.974	0.135976
690.109	0.13628
690.244	0.135976
690.379	0.139329
690.513	0.132622
690.648	0.135671
690.783	0.134756
690.918	0.134756
691.053	0.131402
691.188	0.134146
691.323	0.137805
691.457	0.138415
691.592	0.136585
691.727	0.13689
691.862	0.134451
691.997	0.132927
692.132	0.131402
692.266	0.133841
692.401	0.134756
692.536	0.13811
692.671	0.133232
692.806	0.134451
692.941	0.132927
693.075	0.13872
693.21	0.132317
693.345	0.134451
693.48	0.136585
693.615	0.139634
693.75	0.138415
693.885	0.131402
694.019	0.132622
694.154	0.135671
694.289	0.1375
694.424	0.138415
694.559	0.132927
694.694	0.137195
694.828	0.139329
694.963	0.138415
695.098	0.133841
695.233	0.134756
695.368	0.132622
695.503	0.13872
695.637	0.135976
695.772	0.136585
695.907	0.13628
696.042	0.136585
696.177	0.134756
696.312	0.133841
696.446	0.137195
696.581	0.131707
696.716	0.13628
696.851	0.135366
696.986	0.134756
697.12	0.142988
697.255	0.133841
697.39	0.135061
697.525	0.133537
697.66	0.135976
697.795	0.13811
697.929	0.140549
698.064	0.136585
698.199	0.130793
698.334	0.135671
698.469	0.133537
698.604	0.143293
698.738	0.133841
698.873	0.1375
699.008	0.135061
699.143	0.13811
699.278	0.13628
699.412	0.137805
699.547	0.136585
699.682	0.135061
699.817	0.138415
699.952	0.134756
700.087	0.138415
700.221	0.134146
700.356	0.13811
700.491	0.1375
700.626	0.135671
700.761	0.13872
700.895	0.134451
701.03	0.13628
701.165	0.133537
701.3	0.133841
701.435	0.133841
701.57	0.139024
701.704	0.138415
701.839	0.138415
701.974	0.1375
702.109	0.13689
702.244	0.132317
702.378	0.134451
702.513	0.133232
702.648	0.133841
702.783	0.135061
702.918	0.134756
703.052	0.136585
703.187	0.140244
703.322	0.134451
703.457	0.134146
703.592	0.137195
703.727	0.139329
703.861	0.136585
703.996	0.134756
704.131	0.135671
704.266	0.132927
704.401	0.135061
704.535	0.133537
704.67	0.137195
704.805	0.135976
704.94	0.137805
705.075	0.136585
705.209	0.131402
705.344	0.13689
705.479	0.134756
705.614	0.139329
705.749	0.137805
705.883	0.135976
706.018	0.137805
706.153	0.132622
706.288	0.135976
706.423	0.133232
706.557	0.135061
706.692	0.135976
706.827	0.137195
706.962	0.132622
707.097	0.135976
707.231	0.136585
707.366	0.136585
707.501	0.142988
707.636	0.138415
707.771	0.139329
707.905	0.141463
708.04	0.136585
708.175	0.133537
708.31	0.140244
708.445	0.133841
708.579	0.1375
708.714	0.135671
708.849	0.132622
708.984	0.137805
709.118	0.133841
709.253	0.132927
709.388	0.138415
709.523	0.1375
709.658	0.13628
709.792	0.13628
709.927	0.134146
710.062	0.131098
710.197	0.133841
710.332	0.133232
710.466	0.135061
710.601	0.13689
710.736	0.135061
710.871	0.139024
711.006	0.136585
711.14	0.134756
711.275	0.135366
711.41	0.139024
711.545	0.134756
711.679	0.135976
711.814	0.140244
711.949	0.141159
712.084	0.139634
712.219	0.136585
712.353	0.134756
712.488	0.134756
712.623	0.13689
712.758	0.137195
712.892	0.132317
713.027	0.139939
713.162	0.139939
713.297	0.131402
713.432	0.131098
713.566	0.137805
713.701	0.139634
713.836	0.135671
713.971	0.1375
714.105	0.135671
714.24	0.131402
714.375	0.135061
714.51	0.135061
714.645	0.135976
714.779	0.13811
714.914	0.139634
715.049	0.135366
715.184	0.135671
715.318	0.135976
715.453	0.13689
715.588	0.134451
715.723	0.139634
715.858	0.135671
715.992	0.133232
716.127	0.133841
716.262	0.137805
716.397	0.135671
716.531	0.134451
716.666	0.135671
716.801	0.133841
716.936	0.13628
717.07	0.136585
717.205	0.135976
717.34	0.130793
717.475	0.13628
717.61	0.132317
717.744	0.139329
717.879	0.13628
718.014	0.136585
718.149	0.135061
718.283	0.137195
718.418	0.13811
718.553	0.135976
718.688	0.1375
718.822	0.136585
718.957	0.13689
719.092	0.135671
719.227	0.135671
719.361	0.13872
719.496	0.136585
719.631	0.139634
719.766	0.131707
719.9	0.133232
720.035	0.135366
720.17	0.13628
720.305	0.130793
720.44	0.13689
720.574	0.132317
720.709	0.135976
720.844	0.135976
720.979	0.1375
721.113	0.135671
721.248	0.135976
721.383	0.13872
721.518	0.139024
721.652	0.13872
721.787	0.136585
721.922	0.1375
722.057	0.133841
722.191	0.139329
722.326	0.132317
722.461	0.133537
722.596	0.135366
722.73	0.13628
722.865	0.138415
723	0.134146
723.135	0.138415
723.269	0.135976
723.404	0.134146
723.539	0.133841
723.674	0.136585
723.808	0.134451
723.943	0.1375
724.078	0.132622
724.213	0.137805
724.347	0.133537
724.482	0.135671
724.617	0.138415
724.752	0.135976
724.886	0.132622
725.021	0.138415
725.156	0.139024
725.291	0.135976
725.425	0.133537
725.56	0.133537
725.695	0.13872
725.829	0.139634
725.964	0.139634
726.099	0.13872
726.234	0.134146
726.368	0.137805
726.503	0.133841
726.638	0.1375
726.773	0.136585
726.907	0.134146
727.042	0.13628
727.177	0.133537
727.312	0.13872
727.446	0.133841
727.581	0.13689
727.716	0.137195
727.851	0.132622
727.985	0.135061
728.12	0.135061
728.255	0.140854
728.389	0.131707
728.524	0.140244
728.659	0.1375
728.794	0.130488
728.928	0.132927
729.063	0.1375
729.198	0.135671
729.333	0.136585
729.467	0.134146
729.602	0.137195
729.737	0.137195
729.872	0.135366
730.006	0.134146
730.141	0.137195
730.276	0.139024
730.41	0.137195
730.545	0.131098
730.68	0.134756
730.815	0.133841
730.949	0.135976
731.084	0.134146
731.219	0.141159
731.354	0.133537
731.488	0.133537
731.623	0.13689
731.758	0.133232
731.892	0.1375
732.027	0.135976
732.162	0.130488
732.297	0.135976
732.431	0.135061
732.566	0.135671
732.701	0.135366
732.835	0.134756
732.97	0.132012
733.105	0.135061
733.24	0.13872
733.374	0.137195
733.509	0.140854
733.644	0.1375
733.779	0.133841
733.913	0.13872
734.048	0.13689
734.183	0.136585
734.317	0.137195
734.452	0.134756
734.587	0.136585
734.722	0.135976
734.856	0.133537
734.991	0.139024
735.126	0.139024
735.26	0.135061
735.395	0.138415
735.53	0.1375
735.665	0.130488
735.799	0.135671
735.934	0.132317
736.069	0.135976
736.203	0.133841
736.338	0.137805
736.473	0.135671
736.607	0.132927
736.742	0.13811
736.877	0.132317
737.012	0.13872
737.146	0.135061
737.281	0.135671
737.416	0.139634
737.55	0.134451
737.685	0.13628
737.82	0.133841
737.955	0.132622
738.089	0.135976
738.224	0.133232
738.359	0.137195
738.493	0.13811
738.628	0.137805
738.763	0.135061
738.897	0.136585
739.032	0.13689
739.167	0.133537
739.302	0.13811
739.436	0.137805
739.571	0.133232
739.706	0.132317
739.84	0.137195
739.975	0.135671
740.11	0.136585
740.244	0.132927
740.379	0.13628
740.514	0.133841
740.649	0.138415
740.783	0.130793
740.918	0.133232
741.053	0.137805
741.187	0.13811
741.322	0.135671
741.457	0.136585
741.591	0.137195
741.726	0.133537
741.861	0.13872
741.996	0.134146
742.13	0.133232
742.265	0.137805
742.4	0.13628
742.534	0.131707
742.669	0.132012
742.804	0.130488
742.938	0.135061
743.073	0.135061
743.208	0.131402
743.342	0.137805
743.477	0.137805
743.612	0.13628
743.747	0.133232
743.881	0.135976
744.016	0.132622
744.151	0.133537
744.285	0.135061
744.42	0.135366
744.555	0.1375
744.689	0.137195
744.824	0.13811
744.959	0.137805
745.093	0.135061
745.228	0.135061
745.363	0.137805
745.497	0.140549
745.632	0.137805
745.767	0.134756
745.901	0.134756
746.036	0.135976
746.171	0.132622
746.305	0.135061
746.44	0.139329
746.575	0.139024
746.71	0.13811
746.844	0.134756
746.979	0.136585
747.114	0.132927
747.248	0.136585
747.383	0.139024
747.518	0.133841
747.652	0.13811
747.787	0.134146
747.922	0.13628
748.056	0.132317
748.191	0.135366
748.326	0.1375
748.46	0.1375
748.595	0.133232
748.73	0.135366
748.864	0.132927
748.999	0.135366
749.134	0.130183
749.268	0.13811
749.403	0.134146
749.538	0.133232
749.672	0.13689
749.807	0.13689
749.942	0.134756
750.076	0.135366
750.211	0.129878
750.346	0.133537
750.48	0.137195
750.615	0.132927
750.75	0.132622
750.884	0.135976
751.019	0.13872
751.154	0.13689
751.288	0.135976
751.423	0.131707
751.558	0.138415
751.692	0.137805
751.827	0.13689
751.962	0.135366
752.096	0.1375
752.231	0.13811
752.366	0.134451
752.5	0.1375
752.635	0.13811
752.77	0.133537
752.904	0.138415
753.039	0.137805
753.174	0.133232
753.308	0.135976
753.443	0.135061
753.578	0.13628
753.712	0.139634
753.847	0.134146
753.982	0.135061
754.116	0.132622
754.251	0.132927
754.386	0.135366
754.52	0.13689
754.655	0.135671
754.79	0.13689
754.924	0.140549
755.059	0.133841
755.194	0.1375
755.328	0.138415
755.463	0.135976
755.597	0.13689
755.732	0.13689
755.867	0.135366
756.001	0.13628
756.136	0.130793
756.271	0.13628
756.405	0.135061
756.54	0.131098
756.675	0.139939
756.809	0.133841
756.944	0.135976
757.079	0.135061
757.213	0.135366
757.348	0.137195
757.483	0.137805
757.617	0.13689
757.752	0.134451
757.887	0.137805
758.021	0.1375
758.156	0.13628
758.29	0.130183
758.425	0.136585
758.56	0.135671
758.694	0.137805
758.829	0.135366
758.964	0.134756
759.098	0.140244
759.233	0.135976
759.368	0.132927
759.502	0.134756
759.637	0.13628
759.772	0.134146
759.906	0.132012
760.041	0.132622
760.175	0.139024
760.31	0.135366
760.445	0.136585
760.579	0.134146
760.714	0.1375
760.849	0.136585
760.983	0.136585
761.118	0.137195
761.253	0.135671
761.387	0.135671
761.522	0.133232
761.656	0.135976
761.791	0.135366
761.926	0.13872
762.06	0.133232
762.195	0.135976
762.33	0.134146
762.464	0.137195
762.599	0.137805
762.733	0.133537
762.868	0.13811
763.003	0.133841
763.137	0.135671
763.272	0.135976
763.407	0.132927
763.541	0.13628
763.676	0.137195
763.811	0.138415
763.945	0.133232
764.08	0.132927
764.214	0.136585
764.349	0.137195
764.484	0.137805
764.618	0.139024
764.753	0.134146
764.888	0.13628
765.022	0.13628
765.157	0.134146
765.291	0.134451
765.426	0.130488
765.561	0.134146
765.695	0.132012
765.83	0.132927
765.965	0.133537
766.099	0.135671
766.234	0.135366
766.368	0.132927
766.503	0.1375
766.638	0.135671
766.772	0.132927
766.907	0.135976
767.041	0.137195
767.176	0.136585
767.311	0.1375
767.445	0.132622
767.58	0.132927
767.715	0.131098
767.849	0.134756
767.984	0.137195
768.118	0.13689
768.253	0.137805
768.388	0.13689
768.522	0.134451
768.657	0.133537
768.791	0.134146
768.926	0.139329
769.061	0.134146
769.195	0.133232
769.33	0.134756
769.465	0.135061
769.599	0.13628
769.734	0.132012
769.868	0.139329
770.003	0.137195
770.138	0.130793
770.272	0.13872
770.407	0.135366
770.541	0.13628
770.676	0.13628
770.811	0.139634
770.945	0.134451
771.08	0.133841
771.214	0.136585
771.349	0.140244
771.484	0.137195
771.618	0.131098
771.753	0.135976
771.887	0.134756
772.022	0.139329
772.157	0.133232
772.291	0.132012
772.426	0.133232
772.56	0.128659
772.695	0.136585
772.83	0.133537
772.964	0.139024
773.099	0.133841
773.233	0.137195
773.368	0.140854
773.503	0.134146
773.637	0.133232
773.772	0.134146
773.906	0.135061
774.041	0.135671
774.176	0.138415
774.31	0.139329
774.445	0.134146
774.579	0.13872
774.714	0.133841
774.849	0.138415
774.983	0.134451
775.118	0.1375
775.252	0.135061
775.387	0.131707
775.522	0.133232
775.656	0.136585
775.791	0.135671
775.925	0.133232
776.06	0.133537
776.195	0.132622
776.329	0.139939
776.464	0.135671
776.598	0.137195
776.733	0.137195
776.868	0.136585
777.002	0.135366
777.137	0.133841
777.271	0.133537
777.406	0.140854
777.54	0.135671
777.675	0.137805
777.81	0.137195
777.944	0.13811
778.079	0.137195
778.213	0.137805
778.348	0.132622
778.483	0.139024
778.617	0.13811
778.752	0.13811
778.886	0.13811
779.021	0.137805
779.155	0.133232
779.29	0.135671
779.425	0.139939
779.559	0.135671
779.694	0.137195
779.828	0.134146
779.963	0.13689
780.098	0.135976
780.232	0.132927
780.367	0.135671
780.501	0.134756
780.636	0.137805
780.77	0.135671
780.905	0.134146
781.04	0.136585
781.174	0.135671
781.309	0.145732
781.443	0.135061
781.578	0.137195
781.712	0.135976
781.847	0.13628
781.982	0.135976
782.116	0.1375
782.251	0.134451
782.385	0.134756
782.52	0.135061
782.654	0.139939
782.789	0.135061
782.924	0.133841
783.058	0.135976
783.193	0.13872
783.327	0.137805
783.462	0.136585
783.596	0.139329
783.731	0.135671
783.866	0.135976
784	0.134756
784.135	0.136585
784.269	0.13689
784.404	0.133841
784.538	0.137805
784.673	0.137195
784.808	0.133841
784.942	0.135671
785.077	0.140549
785.211	0.135976
785.346	0.139329
785.48	0.1375
785.615	0.139939
785.75	0.134451
785.884	0.141768
786.019	0.13872
786.153	0.13689
786.288	0.141159
786.422	0.134756
786.557	0.140854
786.691	0.134756
786.826	0.1375
786.961	0.140854
787.095	0.140549
787.23	0.131402
787.364	0.135366
787.499	0.133841
787.633	0.133841
787.768	0.137805
787.902	0.139634
788.037	0.1375
788.172	0.139024
788.306	0.132927
788.441	0.132622
788.575	0.136585
788.71	0.135976
788.844	0.135366
788.979	0.134451
789.113	0.135061
789.248	0.139939
789.383	0.132622
789.517	0.135366
789.652	0.1375
789.786	0.134146
789.921	0.13811
790.055	0.137195
790.19	0.132317
790.324	0.138415
790.459	0.1375
790.594	0.134756
790.728	0.134756
790.863	0.135366
790.997	0.13811
791.132	0.137195
791.266	0.135061
791.401	0.133841
791.535	0.135061
791.67	0.139939
791.804	0.135671
791.939	0.136585
792.074	0.135366
792.208	0.135061
792.343	0.135366
792.477	0.135671
792.612	0.13872
792.746	0.13811
792.881	0.129573
793.015	0.13628
793.15	0.135976
793.284	0.13689
793.419	0.13628
793.553	0.137805
793.688	0.139329
793.823	0.131707
793.957	0.139939
794.092	0.131098
794.226	0.135671
794.361	0.134451
794.495	0.133232
794.63	0.142683
794.764	0.137195
794.899	0.132317
795.033	0.135976
795.168	0.135976
795.302	0.135976
795.437	0.13689
795.572	0.134146
795.706	0.13872
795.841	0.134451
795.975	0.132317
796.11	0.134756
796.244	0.133841
796.379	0.140549
796.513	0.13811
796.648	0.135671
796.782	0.137805
796.917	0.132927
797.051	0.133537
797.186	0.135976
797.32	0.131402
797.455	0.132622
797.589	0.131707
797.724	0.13628
797.859	0.132012
797.993	0.141463
798.128	0.136585
798.262	0.133232
798.397	0.131402
798.531	0.137805
798.666	0.138415
798.8	0.13628
798.935	0.134756
799.069	0.140549
799.204	0.1375
799.338	0.136585
799.473	0.139634
799.607	0.13628
799.742	0.133232
799.876	0.131707
800.011	0.135671
800.145	0.137805
800.28	0.130488
800.414	0.135671
800.549	0.13628
800.683	0.133537
800.818	0.137195
800.953	0.1375
801.087	0.1375
801.222	0.138415
801.356	0.136585
801.491	0.135976
801.625	0.131098
801.76	0.138415
801.894	0.134756
802.029	0.13628
802.163	0.133537
802.298	0.13811
802.432	0.132317
802.567	0.13689
802.701	0.135061
802.836	0.13628
802.97	0.13689
803.105	0.13872
803.239	0.136585
803.374	0.133537
803.508	0.134451
803.643	0.137195
803.777	0.134451
803.912	0.132622
804.046	0.139329
804.181	0.139329
804.315	0.136585
804.45	0.137195
804.584	0.13811
804.719	0.13689
804.853	0.139329
804.988	0.13628
805.122	0.13811
805.257	0.139939
805.391	0.1375
805.526	0.139939
805.66	0.140244
805.795	0.141463
805.929	0.135061
806.064	0.139024
806.198	0.139024
806.333	0.139939
806.467	0.141159
806.602	0.142683
806.736	0.143598
806.871	0.14878
807.005	0.153963
807.14	0.191768
807.274	0.243598
807.409	0.267073
807.543	0.248171
807.678	0.215549
807.812	0.289939
807.947	0.408232
808.081	0.35061
808.216	0.230183
808.35	0.383232
808.485	0.857012
808.619	1
808.754	0.371037
808.888	0.186585
809.023	0.167683
809.157	0.147866
809.292	0.141768
809.426	0.144207
809.561	0.141463
809.695	0.139939
809.83	0.140244
809.964	0.133841
810.099	0.13689
810.233	0.137195
810.368	0.140549
810.502	0.142073
810.637	0.142378
810.771	0.134756
810.906	0.133232
811.04	0.133232
811.175	0.136585
811.309	0.133841
811.444	0.138415
811.578	0.140549
811.713	0.137805
811.847	0.136585
811.982	0.134146
812.116	0.13811
812.251	0.135061
812.385	0.138415
812.519	0.134756
812.654	0.139329
812.788	0.13689
812.923	0.133841
813.057	0.13811
813.192	0.133537
813.326	0.133537
813.461	0.139024
813.595	0.13811
813.73	0.134756
813.864	0.135671
813.999	0.1375
814.133	0.13811
814.268	0.139329
814.402	0.135366
814.537	0.137805
814.671	0.140549
814.806	0.13872
814.94	0.135366
815.075	0.135671
815.209	0.134146
815.344	0.13628
815.478	0.1375
815.612	0.135976
815.747	0.132012
815.881	0.139634
816.016	0.137805
816.15	0.132622
816.285	0.133537
816.419	0.135671
816.554	0.135366
816.688	0.131098
816.823	0.137195
816.957	0.135976
817.092	0.133841
817.226	0.133537
817.361	0.137195
817.495	0.13811
817.63	0.137805
817.764	0.133537
817.898	0.139634
818.033	0.13628
818.167	0.136585
818.302	0.13811
818.436	0.135061
818.571	0.134756
818.705	0.137195
818.84	0.13628
818.974	0.134756
819.109	0.13628
819.243	0.134756
819.378	0.135671
819.512	0.132927
819.646	0.135366
819.781	0.133537
819.915	0.13872
820.05	0.133232
820.184	0.134756
820.319	0.13628
820.453	0.138415
820.588	0.134756
820.722	0.1375
820.857	0.135671
820.991	0.139939
821.126	0.133537
821.26	0.13811
821.394	0.13689
821.529	0.131707
821.663	0.139024
821.798	0.1375
821.932	0.132927
822.067	0.134146
822.201	0.135976
822.336	0.134756
822.47	0.133537
822.605	0.132622
822.739	0.135976
822.873	0.130183
823.008	0.137805
823.142	0.135976
823.277	0.135366
823.411	0.135366
823.546	0.135061
823.68	0.137195
823.815	0.134146
823.949	0.134451
824.083	0.137195
824.218	0.141768
824.352	0.135976
824.487	0.137195
824.621	0.134756
824.756	0.135976
824.89	0.135976
825.025	0.133232
825.159	0.135366
825.293	0.133537
825.428	0.13689
825.562	0.137805
825.697	0.137195
825.831	0.137195
825.966	0.141463
826.1	0.134756
826.235	0.136585
826.369	0.141768
826.503	0.13628
826.638	0.138415
826.772	0.132927
826.907	0.136585
827.041	0.137805
827.176	0.131707
827.31	0.136585
827.445	0.13811
827.579	0.13628
827.713	0.137195
827.848	0.135366
827.982	0.137195
828.117	0.140549
828.251	0.135671
828.386	0.137195
828.52	0.135976
828.654	0.135061
828.789	0.137195
828.923	0.1375
829.058	0.135976
829.192	0.138415
829.327	0.13628
829.461	0.133232
829.596	0.133841
829.73	0.13689
829.864	0.135061
829.999	0.139329
830.133	0.1375
830.268	0.139024
830.402	0.1375
830.537	0.132927
830.671	0.133232
830.805	0.135671
830.94	0.135976
831.074	0.133537
831.209	0.137805
831.343	0.135671
831.478	0.134756
831.612	0.134756
831.746	0.13811
831.881	0.137195
832.015	0.139939
832.15	0.13628
832.284	0.135061
832.418	0.13872
832.553	0.13811
832.687	0.133232
832.822	0.13811
832.956	0.13628
833.091	0.134451
833.225	0.136585
833.359	0.134756
833.494	0.140549
833.628	0.134756
833.763	0.139024
833.897	0.131707
834.032	0.1375
834.166	0.13811
834.3	0.13628
834.435	0.140854
834.569	0.135671
834.704	0.135976
834.838	0.137805
834.972	0.137195
835.107	0.139329
835.241	0.138415
835.376	0.143598
835.51	0.137195
835.645	0.135061
835.779	0.135976
835.913	0.135671
836.048	0.132927
836.182	0.139329
836.317	0.13811
836.451	0.133841
836.585	0.135976
836.72	0.135061
836.854	0.132317
836.989	0.142073
837.123	0.13628
837.257	0.13811
837.392	0.13628
837.526	0.135061
837.661	0.139634
837.795	0.139024
837.929	0.134146
838.064	0.139939
838.198	0.136585
838.333	0.134451
838.467	0.136585
838.602	0.135976
838.736	0.130488
838.87	0.134146
839.005	0.135366
839.139	0.133537
839.274	0.135061
839.408	0.139634
839.542	0.137805
839.677	0.139939
839.811	0.133537
839.946	0.134756
840.08	0.138415
840.214	0.139634
840.349	0.139024
840.483	0.139329
840.618	0.137195
840.752	0.13628
840.886	0.137195
841.021	0.134756
841.155	0.132622
841.29	0.13872
841.424	0.139329
841.558	0.136585
841.693	0.137195
841.827	0.133841
841.961	0.132927
842.096	0.13689
842.23	0.134756
842.365	0.139329
842.499	0.132317
842.633	0.137195
842.768	0.137195
842.902	0.135366
843.037	0.134146
843.171	0.13689
843.305	0.136585
843.44	0.141463
843.574	0.13628
843.709	0.134146
843.843	0.134451
843.977	0.133841
844.112	0.135671
844.246	0.135366
844.381	0.135061
844.515	0.135671
844.649	0.139329
844.784	0.132317
844.918	0.13628
845.052	0.137805
845.187	0.137195
845.321	0.134756
845.456	0.132927
845.59	0.133537
845.724	0.13628
845.859	0.137195
845.993	0.133841
846.128	0.139634
846.262	0.132317
846.396	0.133841
846.531	0.135976
846.665	0.13872
846.799	0.13628
846.934	0.13689
847.068	0.142073
847.203	0.13811
847.337	0.137805
847.471	0.134451
847.606	0.133537
847.74	0.135061
847.874	0.13689
848.009	0.137805
848.143	0.133841
848.278	0.129878
848.412	0.13811
848.546	0.133232
848.681	0.135976
848.815	0.136585
848.949	0.135671
849.084	0.13872
849.218	0.137805
849.353	0.138415
849.487	0.135061
849.621	0.131707
849.756	0.135366
849.89	0.137805
850.024	0.1375
850.159	0.135366
850.293	0.130488
850.428	0.133841
850.562	0.134756
850.696	0.13811
850.831	0.139329
850.965	0.13811
851.099	0.141463
851.234	0.133232
851.368	0.141768
851.502	0.13628
851.637	0.134451
851.771	0.137805
851.906	0.135976
852.04	0.1375
852.174	0.13811
852.309	0.132622
852.443	0.137195
852.577	0.135061
852.712	0.1375
852.846	0.13689
852.98	0.13628
853.115	0.136585
853.249	0.135061
853.384	0.135061
853.518	0.137195
853.652	0.132622
853.787	0.135976
853.921	0.1375
854.055	0.137195
854.19	0.13689
854.324	0.139024
854.458	0.134451
854.593	0.140549
854.727	0.134146
854.861	0.1375
854.996	0.134451
855.13	0.133232
855.265	0.131098
855.399	0.135671
855.533	0.132317
855.668	0.133537
855.802	0.137195
855.936	0.134756
856.071	0.13872
856.205	0.134146
856.339	0.131402
856.474	0.137805
856.608	0.13628
856.742	0.137195
856.877	0.132622
857.011	0.134451
857.145	0.135671
857.28	0.1375
857.414	0.140244
857.549	0.135061
857.683	0.13628
857.817	0.137805
857.952	0.135061
858.086	0.13811
858.22	0.136585
858.355	0.135366
858.489	0.134146
858.623	0.134146
858.758	0.13872
858.892	0.140854
859.026	0.139024
859.161	0.13689
859.295	0.135061
859.429	0.133232
859.564	0.140549
859.698	0.133537
859.832	0.13811
859.967	0.135366
860.101	0.1375
860.235	0.133537
860.37	0.132927
860.504	0.139329
860.638	0.137195
860.773	0.13689
860.907	0.133537
861.041	0.134756
861.176	0.131707
861.31	0.139329
861.444	0.130488
861.579	0.139939
861.713	0.133537
861.847	0.135976
861.982	0.131402
862.116	0.138415
862.25	0.135671
862.385	0.13628
862.519	0.134146
862.653	0.136585
862.788	0.135671
862.922	0.135366
863.056	0.135976
863.191	0.137805
863.325	0.139024
863.459	0.135366
863.594	0.134146
863.728	0.138415
863.862	0.140854
863.997	0.13628
864.131	0.138415
864.265	0.134756
864.4	0.135366
864.534	0.13811
864.668	0.1375
864.803	0.132012
864.937	0.137195
865.071	0.131402
865.206	0.135976
865.34	0.13872
865.474	0.1375
865.609	0.134146
865.743	0.134146
865.877	0.13689
866.012	0.135976
866.146	0.13872
866.28	0.13689
866.415	0.135366
866.549	0.138415
866.683	0.13628
866.818	0.135061
866.952	0.133841
867.086	0.135061
867.221	0.134451
867.355	0.135976
867.489	0.137195
867.623	0.136585
867.758	0.135366
867.892	0.135976
868.026	0.135671
868.161	0.133537
868.295	0.13628
868.429	0.140854
868.564	0.132927
868.698	0.133841
868.832	0.13811
868.967	0.13689
869.101	0.143293
869.235	0.140549
869.37	0.135061
869.504	0.135976
869.638	0.140549
869.773	0.133537
869.907	0.135061
870.041	0.134146
870.175	0.137195
870.31	0.136585
870.444	0.135366
870.578	0.137195
870.713	0.1375
870.847	0.129573
870.981	0.131707
871.116	0.13689
871.25	0.13872
871.384	0.139024
871.519	0.1375
871.653	0.13628
871.787	0.135366
871.921	0.139634
872.056	0.132927
872.19	0.134146
872.324	0.133537
872.459	0.13811
872.593	0.133232
872.727	0.132317
872.862	0.135366
872.996	0.134756
873.13	0.13628
873.264	0.13811
873.399	0.138415
873.533	0.136585
873.667	0.135976
873.802	0.136585
873.936	0.139024
874.07	0.132012
874.205	0.134451
874.339	0.135366
874.473	0.13628
874.607	0.1375
874.742	0.136585
874.876	0.13811
875.01	0.135671
875.145	0.135976
875.279	0.136585
875.413	0.133537
875.548	0.133841
875.682	0.134146
875.816	0.13628
875.95	0.134146
876.085	0.134756
876.219	0.135976
876.353	0.13689
876.488	0.133841
876.622	0.1375
876.756	0.139939
876.89	0.1375
877.025	0.132927
877.159	0.135061
877.293	0.132622
877.428	0.135061
877.562	0.140854
877.696	0.132622
877.83	0.13811
877.965	0.134146
878.099	0.133537
878.233	0.139634
878.368	0.134146
878.502	0.132317
878.636	0.134146
878.77	0.13628
878.905	0.132622
879.039	0.135366
879.173	0.133841
879.308	0.13628
879.442	0.13811
879.576	0.134146
879.71	0.133232
879.845	0.139024
879.979	0.13872
880.113	0.138415
880.248	0.138415
880.382	0.137195
880.516	0.1375
880.65	0.13628
880.785	0.135671
880.919	0.135061
881.053	0.134756
881.188	0.133232
881.322	0.141463
881.456	0.137195
881.59	0.135061
881.725	0.134146
881.859	0.134756
881.993	0.13689
882.127	0.1375
882.262	0.1375
882.396	0.13628
882.53	0.134756
882.665	0.13628
882.799	0.13811
882.933	0.133232
883.067	0.131707
883.202	0.141768
883.336	0.13628
883.47	0.134756
883.604	0.137195
883.739	0.13628
883.873	0.139329
884.007	0.133841
884.142	0.1375
884.276	0.136585
884.41	0.137805
884.544	0.135061
884.679	0.132927
884.813	0.135061
884.947	0.135061
885.081	0.139939
885.216	0.135061
885.35	0.136585
885.484	0.134756
885.618	0.133232
885.753	0.131098
885.887	0.13872
886.021	0.13689
886.155	0.135976
886.29	0.132927
886.424	0.13689
886.558	0.133841
886.693	0.137195
886.827	0.135366
886.961	0.136585
887.095	0.13689
887.23	0.135671
887.364	0.137195
887.498	0.13689
887.632	0.140244
887.767	0.134451
887.901	0.134756
888.035	0.137805
888.169	0.135976
888.304	0.132927
888.438	0.133841
888.572	0.13689
888.706	0.135061
888.841	0.133841
888.975	0.139939
889.109	0.13628
889.243	0.13628
889.378	0.135976
889.512	0.134451
889.646	0.135366
889.78	0.135061
889.915	0.139634
890.049	0.135366
890.183	0.135976
890.317	0.135671
890.452	0.133537
890.586	0.137195
890.72	0.13689
890.854	0.132317
890.989	0.139024
891.123	0.135366
891.257	0.136585
891.391	0.137195
891.526	0.140549
891.66	0.135366
891.794	0.135366
891.928	0.13689
892.063	0.138415
892.197	0.13689
892.331	0.13628
892.465	0.134146
892.6	0.134146
892.734	0.135366
892.868	0.129573
893.002	0.134146
893.137	0.1375
893.271	0.132317
893.405	0.134451
893.539	0.135061
893.674	0.13628
893.808	0.13811
893.942	0.138415
894.076	0.135976
894.21	0.137195
894.345	0.136585
894.479	0.133537
894.613	0.1375
894.747	0.133537
894.882	0.133232
895.016	0.13811
895.15	0.136585
895.284	0.1375
895.419	0.138415
895.553	0.13689
895.687	0.13811
895.821	0.133232
895.956	0.135671
896.09	0.137805
896.224	0.135671
896.358	0.134146
896.492	0.137805
896.627	0.135976
896.761	0.135671
896.895	0.13628
897.029	0.129878
897.164	0.13689
897.298	0.133232
897.432	0.135061
897.566	0.13689
897.701	0.133537
897.835	0.133841
897.969	0.129573
898.103	0.13689
898.237	0.133537
898.372	0.139939
898.506	0.13689
898.64	0.131707
898.774	0.139024
898.909	0.139634
899.043	0.139329
899.177	0.133232
899.311	0.140244
899.445	0.135976
899.58	0.139634
899.714	0.135671
899.848	0.133537
899.982	0.13872
900.117	0.137805
900.251	0.13689
900.385	0.13628
900.519	0.133537
900.653	0.134146
900.788	0.135976
900.922	0.1375
901.056	0.1375
901.19	0.133537
901.325	0.135061
901.459	0.132317
901.593	0.138415
901.727	0.132622
901.861	0.142073
901.996	0.132927
902.13	0.138415
902.264	0.139329
902.398	0.132317
902.532	0.139024
902.667	0.134146
902.801	0.137805
902.935	0.134146
903.069	0.139024
903.204	0.135366
903.338	0.134756
903.472	0.135976
903.606	0.135976
903.74	0.134146
903.875	0.1375
904.009	0.139024
904.143	0.134756
904.277	0.134756
904.411	0.136585
904.546	0.135976
904.68	0.134451
904.814	0.132012
904.948	0.139939
905.082	0.139939
905.217	0.1375
905.351	0.134756
905.485	0.135366
905.619	0.134451
905.753	0.141463
905.888	0.13811
906.022	0.135366
906.156	0.133841
906.29	0.138415
906.424	0.135671
906.559	0.137195
906.693	0.135671
906.827	0.13872
906.961	0.136585
907.095	0.137195
907.23	0.134146
907.364	0.135366
907.498	0.1375
907.632	0.133841
907.766	0.1375
907.901	0.139329
908.035	0.135976
908.169	0.13628
908.303	0.138415
908.437	0.132012
908.572	0.135671
908.706	0.137805
908.84	0.141463
908.974	0.13872
909.108	0.13628
909.243	0.132317
909.377	0.135976
909.511	0.133537
909.645	0.135976
909.779	0.132927
909.914	0.134451
910.048	0.133537
910.182	0.134451
910.316	0.139939
910.45	0.132927
910.585	0.134146
910.719	0.132012
910.853	0.13628
910.987	0.1375
911.121	0.135366
911.255	0.135976
911.39	0.134146
911.524	0.133841
911.658	0.13811
911.792	0.136585
911.926	0.137195
912.061	0.134146
912.195	0.141463
912.329	0.1375
912.463	0.134146
912.597	0.139024
912.732	0.13689
912.866	0.128963
913	0.131098
913.134	0.133232
913.268	0.131402
913.402	0.132317
913.537	0.138415
913.671	0.134451
913.805	0.135061
913.939	0.139329
914.073	0.136585
914.208	0.134451
914.342	0.13811
914.476	0.133537
914.61	0.135976
914.744	0.138415
914.878	0.13689
915.013	0.134451
915.147	0.137195
915.281	0.132317
915.415	0.139329
915.549	0.136585
915.683	0.139939
915.818	0.132927
915.952	0.132317
916.086	0.135366
916.22	0.13811
916.354	0.1375
916.488	0.131402
916.623	0.130183
916.757	0.136585
916.891	0.1375
917.025	0.139939
917.159	0.131402
917.293	0.135366
917.428	0.139024
917.562	0.132317
917.696	0.135671
917.83	0.135671
917.964	0.135976
918.098	0.13628
918.233	0.132927
918.367	0.13628
918.501	0.141768
918.635	0.136585
918.769	0.133232
918.903	0.139939
919.038	0.139329
919.172	0.135976
919.306	0.13872
919.44	0.133841
919.574	0.139329
919.708	0.134146
919.843	0.132317
919.977	0.137805
920.111	0.1375
920.245	0.133232
920.379	0.134451
920.513	0.136585
920.648	0.133232
920.782	0.136585
920.916	0.136585
921.05	0.134756
921.184	0.134756
921.318	0.13628
921.453	0.134756
921.587	0.132012
921.721	0.134451
921.855	0.138415
921.989	0.132927
922.123	0.13872
922.257	0.133232
922.392	0.134146
922.526	0.135061
922.66	0.136585
922.794	0.134756
922.928	0.139329
923.062	0.131707
923.197	0.137195
923.331	0.13872
923.465	0.135976
923.599	0.135976
923.733	0.135061
923.867	0.134756
924.001	0.13872
924.136	0.13689
924.27	0.134756
924.404	0.135671
924.538	0.13872
924.672	0.134451
924.806	0.134756
924.94	0.136585
925.075	0.137805
925.209	0.135976
925.343	0.135061
925.477	0.133841
925.611	0.135366
925.745	0.132622
925.879	0.137195
926.014	0.135976
926.148	0.133537
926.282	0.136585
926.416	0.1375
926.55	0.137195
926.684	0.133537
926.818	0.138415
926.953	0.134146
927.087	0.138415
927.221	0.134756
927.355	0.135061
927.489	0.134146
927.623	0.139329
927.757	0.135976
927.892	0.135671
928.026	0.133537
928.16	0.13811
928.294	0.135061
928.428	0.132317
928.562	0.136585
928.696	0.134146
928.831	0.13811
928.965	0.1375
929.099	0.133232
929.233	0.143293
929.367	0.139634
929.501	0.135366
929.635	0.139634
929.769	0.138415
929.904	0.135366
930.038	0.135061
930.172	0.134451
930.306	0.131707
930.44	0.137195
930.574	0.134756
930.708	0.134756
930.843	0.13811
930.977	0.13689
931.111	0.135671
931.245	0.132927
931.379	0.134146
931.513	0.132927
931.647	0.13811
931.781	0.132927
931.916	0.133537
932.05	0.134451
932.184	0.133841
932.318	0.134146
932.452	0.135061
932.586	0.131098
932.72	0.137195
932.854	0.131402
932.989	0.134451
933.123	0.134756
933.257	0.13628
933.391	0.135366
933.525	0.137195
933.659	0.13811
933.793	0.13689
933.927	0.136585
934.061	0.137195
934.196	0.136585
934.33	0.137805
934.464	0.137195
934.598	0.135671
934.732	0.135061
934.866	0.134146
935	0.135976
935.134	0.139634
935.269	0.132622
935.403	0.13689
935.537	0.136585
935.671	0.135976
935.805	0.137195
935.939	0.1375
936.073	0.13872
936.207	0.13689
936.341	0.134756
936.476	0.137195
936.61	0.134146
936.744	0.13628
936.878	0.134756
937.012	0.131707
937.146	0.140549
937.28	0.137805
937.414	0.137195
937.548	0.13811
937.683	0.13628
937.817	0.1375
937.951	0.132317
938.085	0.13628
938.219	0.135061
938.353	0.136585
938.487	0.142073
938.621	0.135976
938.755	0.130793
938.889	0.13689
939.024	0.139939
939.158	0.134756
939.292	0.138415
939.426	0.137195
939.56	0.135976
939.694	0.134756
939.828	0.135061
939.962	0.134756
940.096	0.1375
940.231	0.137195
940.365	0.134146
940.499	0.135976
940.633	0.137195
940.767	0.132012
940.901	0.13628
941.035	0.136585
941.169	0.138415
941.303	0.133232
941.437	0.137805
941.571	0.133232
941.706	0.137805
941.84	0.135061
941.974	0.135976
942.108	0.13872
942.242	0.13628
942.376	0.135976
942.51	0.140244
942.644	0.13689
942.778	0.134756
942.912	0.13811
943.047	0.137805
943.181	0.132927
943.315	0.135671
943.449	0.134756
943.583	0.135976
943.717	0.134146
943.851	0.137805
943.985	0.133841
944.119	0.135061
944.253	0.1375
944.387	0.135671
944.522	0.13689
944.656	0.137805
944.79	0.137805
944.924	0.1375
945.058	0.143293
945.192	0.135671
945.326	0.135976
945.46	0.139024
945.594	0.132622
945.728	0.13689
945.862	0.13689
945.996	0.133537
946.131	0.135976
946.265	0.134756
946.399	0.13689
946.533	0.137195
946.667	0.13628
946.801	0.135976
946.935	0.140854
947.069	0.133841
947.203	0.140244
947.337	0.133537
947.471	0.135976
947.605	0.137805
947.739	0.137195
947.874	0.131402
948.008	0.135061
948.142	0.132622
948.276	0.132927
948.41	0.133232
948.544	0.13689
948.678	0.132012
948.812	0.133537
948.946	0.134146
949.08	0.133841
949.214	0.135671
949.348	0.135366
949.482	0.133841
949.617	0.135366
949.751	0.135366
949.885	0.143293
950.019	0.135671
950.153	0.137805
950.287	0.135061
950.421	0.134756
950.555	0.135976
950.689	0.134451
950.823	0.135061
950.957	0.1375
951.091	0.134146
951.225	0.136585
951.359	0.134756
951.493	0.13628
951.628	0.137805
951.762	0.134756
951.896	0.13689
952.03	0.141159
952.164	0.139939
952.298	0.13628
952.432	0.138415
952.566	0.135366
952.7	0.132622
952.834	0.13689
952.968	0.138415
953.102	0.133537
953.236	0.137195
953.37	0.132927
953.504	0.134756
953.639	0.1375
953.773	0.13689
953.907	0.139329
954.041	0.133841
954.175	0.137805
954.309	0.132317
954.443	0.133841
954.577	0.136585
954.711	0.135671
954.845	0.135671
954.979	0.134451
955.113	0.13811
955.247	0.135976
955.381	0.137195
955.515	0.138415
955.649	0.135671
955.783	0.13689
955.917	0.137805
956.052	0.137805
956.186	0.137195
956.32	0.13811
956.454	0.133232
956.588	0.13628
956.722	0.140244
956.856	0.139024
956.99	0.135366
957.124	0.133841
957.258	0.137195
957.392	0.133232
957.526	0.132927
957.66	0.135061
957.794	0.13689
957.928	0.135976
958.062	0.131402
958.196	0.13689
958.33	0.13811
958.464	0.135671
958.598	0.139024
958.733	0.137805
958.867	0.135366
959.001	0.13628
959.135	0.13628
959.269	0.135366
959.403	0.134451
959.537	0.13689
959.671	0.128659
959.805	0.134146
959.939	0.140549
960.073	0.137195
960.207	0.1375
960.341	0.132622
960.475	0.134756
960.609	0.134451
960.743	0.135976
960.877	0.135061
961.011	0.135976
961.145	0.13811
961.279	0.135366
961.413	0.13628
961.547	0.135976
961.681	0.13628
961.815	0.139329
961.949	0.138415
962.083	0.135976
962.218	0.137195
962.352	0.135671
962.486	0.137195
962.62	0.133537
962.754	0.134451
962.888	0.135061
963.022	0.135061
963.156	0.13811
963.29	0.13689
963.424	0.13689
963.558	0.13628
963.692	0.13628
963.826	0.130488
963.96	0.1375
964.094	0.135976
964.228	0.132622
964.362	0.132012
964.496	0.135976
964.63	0.139329
964.764	0.137805
964.898	0.132927
965.032	0.13689
965.166	0.135061
965.3	0.134756
965.434	0.132622
965.568	0.135976
965.702	0.13628
965.836	0.135976
965.97	0.136585
966.104	0.132927
966.238	0.134451
966.372	0.132927
966.506	0.137195
966.64	0.134451
966.774	0.131707
966.908	0.13628
967.043	0.137195
967.177	0.135976
967.311	0.135976
967.445	0.135366
967.579	0.134451
967.713	0.132317
967.847	0.135976
967.981	0.139939
968.115	0.135976
968.249	0.133232
968.383	0.131707
968.517	0.137805
968.651	0.137195
968.785	0.134451
968.919	0.134756
969.053	0.135671
969.187	0.135366
969.321	0.134146
969.455	0.137805
969.589	0.138415
969.723	0.138415
969.857	0.135976
969.991	0.134756
970.125	0.135976
970.259	0.133841
970.393	0.13689
970.527	0.135671
970.661	0.139024
970.795	0.133232
970.929	0.134146
971.063	0.132317
971.197	0.134756
971.331	0.133841
971.465	0.13811
971.599	0.138415
971.733	0.137805
971.867	0.134451
972.001	0.13628
972.135	0.134451
972.269	0.134756
972.403	0.13628
972.537	0.136585
972.671	0.135366
972.805	0.135671
972.939	0.132927
973.073	0.137805
973.207	0.128354
973.341	0.133537
973.475	0.138415
973.609	0.133841
973.743	0.136585
973.877	0.134756
974.011	0.13689
974.145	0.131402
974.279	0.140854
974.413	0.135671
974.547	0.131098
974.681	0.139939
974.815	0.132622
974.949	0.138415
975.083	0.133841
975.217	0.140244
975.351	0.13872
975.485	0.139024
975.619	0.139024
975.753	0.13811
975.887	0.135366
976.021	0.141159
976.155	0.131707
976.289	0.139024
976.423	0.13872
976.557	0.135976
976.691	0.132317
976.825	0.142378
976.959	0.132012
977.093	0.133232
977.227	0.134756
977.361	0.135671
977.495	0.132622
977.629	0.135671
977.763	0.141159
977.897	0.132927
978.031	0.132317
978.165	0.13689
978.299	0.13811
978.433	0.135671
978.567	0.132622
978.701	0.133232
978.835	0.13628
978.969	0.136585
979.103	0.135976
979.237	0.136585
979.371	0.13872
979.505	0.136585
979.639	0.134146
979.773	0.134756
979.907	0.137805
980.041	0.13628
980.175	0.135976
980.308	0.138415
980.442	0.137805
980.576	0.133841
980.71	0.136585
980.844	0.133537
980.978	0.1375
981.112	0.137805
981.246	0.13628
981.38	0.136585
981.514	0.135366
981.648	0.1375
981.782	0.138415
981.916	0.136585
982.05	0.138415
982.184	0.135061
982.318	0.135976
982.452	0.135061
982.586	0.139024
982.72	0.135061
982.854	0.1375
982.988	0.13628
983.122	0.137805
983.256	0.13628
983.39	0.135976
983.524	0.134756
983.658	0.139024
983.792	0.139939
983.926	0.136585
984.06	0.136585
984.194	0.137195
984.328	0.138415
984.462	0.135671
984.596	0.137805
984.73	0.137195
984.864	0.133537
984.998	0.133841
985.132	0.132927
985.265	0.135671
985.399	0.132317
985.533	0.133537
985.667	0.135671
985.801	0.1375
985.935	0.137195
986.069	0.135366
986.203	0.133841
986.337	0.135061
986.471	0.135061
986.605	0.135671
986.739	0.134451
986.873	0.134756
987.007	0.130793
987.141	0.142378
987.275	0.13872
987.409	0.135061
987.543	0.137195
987.677	0.132317
987.811	0.135366
987.945	0.139634
988.079	0.13689
988.213	0.134146
988.347	0.142378
988.481	0.1375
988.614	0.137195
988.748	0.135976
988.882	0.139024
989.016	0.1375
989.15	0.138415
989.284	0.141463
989.418	0.13689
989.552	0.137805
989.686	0.135061
989.82	0.138415
989.954	0.134451
990.088	0.132622
990.222	0.135366
990.356	0.134451
990.49	0.13811
990.624	0.1375
990.758	0.134756
990.892	0.13689
991.026	0.133841
991.16	0.131707
991.294	0.134756
991.427	0.132927
991.561	0.135976
991.695	0.137195
991.829	0.137195
991.963	0.135061
992.097	0.134146
992.231	0.135671
992.365	0.134146
992.499	0.131098
992.633	0.1375
992.767	0.133232
992.901	0.135061
993.035	0.135976
993.169	0.139024
993.303	0.138415
993.437	0.136585
993.571	0.135061
993.704	0.138415
993.838	0.13811
993.972	0.137805
994.106	0.13628
994.24	0.137195
994.374	0.13628
994.508	0.13872
994.642	0.133537
994.776	0.133841
994.91	0.134756
995.044	0.135061
995.178	0.133537
995.312	0.13628
995.446	0.133841
995.58	0.135061
995.714	0.134451
995.847	0.132927
995.981	0.135366
996.115	0.134756
996.249	0.133537
996.383	0.135366
996.517	0.135366
996.651	0.137805
996.785	0.137195
996.919	0.134756
997.053	0.135061
997.187	0.134451
997.321	0.137805
997.455	0.137195
997.589	0.130793
997.722	0.1375
997.856	0.135366
997.99	0.139024
998.124	0.1375
998.258	0.134451
998.392	0.133537
998.526	0.138415
998.66	0.139634
998.794	0.141768
998.928	0.132927
999.062	0.135976
999.196	0.133537
999.33	0.138415
999.464	0.13872
999.597	0.135061
999.731	0.140549
999.865	0.138415
999.999	0.128049
1000.13	0.136585
1000.27	0.135671
1000.4	0.139329
1000.53	0.13628
1000.67	0.134451
1000.8	0.133537
1000.94	0.13689
1001.07	0.135671
1001.2	0.1375
1001.34	0.1375
1001.47	0.133537
1001.61	0.139329
1001.74	0.134146
1001.87	0.135366
1002.01	0.139024
1002.14	0.133537
1002.28	0.132927
1002.41	0.131707
1002.54	0.140549
1002.68	0.135976
1002.81	0.135976
1002.95	0.13628
1003.08	0.135366
1003.21	0.134756
1003.35	0.139024
1003.48	0.136585
1003.61	0.135366
1003.75	0.135671
1003.88	0.133537
1004.02	0.134146
1004.15	0.135976
1004.28	0.13872
1004.42	0.134146
1004.55	0.137195
1004.69	0.134756
1004.82	0.1375
1004.95	0.13689
1005.09	0.134756
1005.22	0.13872
1005.36	0.1375
1005.49	0.140854
1005.62	0.132317
1005.76	0.135061
1005.89	0.137195
1006.03	0.13689
1006.16	0.135976
1006.29	0.13628
1006.43	0.135671
1006.56	0.13628
1006.69	0.134451
1006.83	0.134451
1006.96	0.13628
1007.1	0.138415
1007.23	0.140549
1007.36	0.131402
1007.5	0.1375
1007.63	0.133537
1007.77	0.136585
1007.9	0.135976
1008.03	0.134451
1008.17	0.135976
1008.3	0.135061
1008.44	0.135061
1008.57	0.13689
1008.7	0.137195
1008.84	0.134756
1008.97	0.139634
1009.1	0.137805
1009.24	0.133537
1009.37	0.136585
1009.51	0.13628
1009.64	0.135671
1009.77	0.137805
1009.91	0.139634
1010.04	0.131707
1010.18	0.13628
1010.31	0.135976
1010.44	0.131098
1010.58	0.135976
1010.71	0.134756
1010.85	0.134146
1010.98	0.133537
1011.11	0.134146
1011.25	0.135671
1011.38	0.136585
1011.51	0.130793
1011.65	0.13628
1011.78	0.135976
1011.92	0.1375
1012.05	0.135366
1012.18	0.135366
1012.32	0.135976
1012.45	0.13811
1012.59	0.140854
1012.72	0.137195
1012.85	0.137805
1012.99	0.135061
1013.12	0.131707
1013.26	0.131707
1013.39	0.133537
1013.52	0.139939
1013.66	0.132317
1013.79	0.13811
1013.92	0.13689
1014.06	0.135366
1014.19	0.132622
1014.33	0.13628
1014.46	0.135976
1014.59	0.1375
1014.73	0.129268
1014.86	0.130793
1015	0.139634
1015.13	0.137805
1015.26	0.137805
1015.4	0.133841
1015.53	0.133232
1015.67	0.133537
1015.8	0.133537
1015.93	0.134146
1016.07	0.135366
1016.2	0.139024
1016.33	0.135061
1016.47	0.132927
1016.6	0.134146
1016.74	0.137195
1016.87	0.135976
1017	0.132317
1017.14	0.135976
1017.27	0.132317
1017.41	0.1375
1017.54	0.131707
1017.67	0.13811
1017.81	0.133537
1017.94	0.132012
1018.07	0.135671
1018.21	0.131098
1018.34	0.1375
1018.48	0.139024
1018.61	0.13689
1018.74	0.135366
1018.88	0.136585
1019.01	0.138415
1019.15	0.135976
1019.28	0.13872
1019.41	0.133537
1019.55	0.1375
1019.68	0.132622
1019.82	0.135671
1019.95	0.137805
1020.08	0.13628
1020.22	0.134756
1020.35	0.1375
1020.48	0.137805
1020.62	0.133841
1020.75	0.13872
1020.89	0.13811
1021.02	0.13811
1021.15	0.130183
1021.29	0.138415
1021.42	0.1375
1021.56	0.133841
1021.69	0.134451
1021.82	0.130793
1021.96	0.139634
1022.09	0.135061
1022.22	0.134451
1022.36	0.133537
1022.49	0.137195
1022.63	0.133537
1022.76	0.135976
1022.89	0.135671
1023.03	0.135061
1023.16	0.13689
1023.3	0.139024
1023.43	0.13689
1023.56	0.135671
1023.7	0.137805
1023.83	0.13628
1023.96	0.133537
1024.1	0.13689
1024.23	0.13689
1024.37	0.139634
1024.5	0.13872
1024.63	0.138415
1024.77	0.132927
1024.9	0.134756
1025.04	0.134756
1025.17	0.132927
1025.3	0.135976
1025.44	0.13628
1025.57	0.135976
1025.7	0.135976
1025.84	0.133841
1025.97	0.13628
1026.11	0.13689
1026.24	0.132622
1026.37	0.133232
1026.51	0.134451
1026.64	0.13689
1026.78	0.135061
1026.91	0.13872
1027.04	0.132317
1027.18	0.138415
1027.31	0.138415
1027.44	0.13628
1027.58	0.133232
1027.71	0.132012
1027.85	0.134451
1027.98	0.13872
1028.11	0.13628
1028.25	0.132317
1028.38	0.139329
1028.52	0.134451
1028.65	0.135061
1028.78	0.141159
1028.92	0.136585
1029.05	0.13689
1029.18	0.13689
1029.32	0.133841
1029.45	0.13628
1029.59	0.13811
1029.72	0.134756
1029.85	0.1375
1029.99	0.134451
1030.12	0.13628
1030.26	0.139329
1030.39	0.134756
1030.52	0.132317
1030.66	0.133232
1030.79	0.131402
1030.92	0.136585
1031.06	0.1375
1031.19	0.135366
1031.33	0.135366
1031.46	0.1375
1031.59	0.135366
1031.73	0.139634
1031.86	0.135366
1031.99	0.137195
1032.13	0.132622
1032.26	0.13872
1032.4	0.135061
1032.53	0.128659
1032.66	0.139024
1032.8	0.13872
1032.93	0.132317
1033.07	0.135671
1033.2	0.132317
1033.33	0.1375
1033.47	0.138415
1033.6	0.133537
1033.73	0.13628
1033.87	0.137195
1034	0.13689
1034.14	0.133537
1034.27	0.132927
1034.4	0.13628
1034.54	0.135671
1034.67	0.1375
1034.81	0.133232
1034.94	0.133537
1035.07	0.137805
1035.21	0.135671
1035.34	0.131098
1035.47	0.138415
1035.61	0.13811
1035.74	0.1375
1035.88	0.133232
1036.01	0.132622
1036.14	0.136585
1036.28	0.13628
1036.41	0.13811
1036.54	0.134451
1036.68	0.135671
1036.81	0.132317
1036.95	0.137805
1037.08	0.135366
1037.21	0.129573
1037.35	0.13811
1037.48	0.134756
1037.62	0.135671
1037.75	0.139024
1037.88	0.135976
1038.02	0.137195
1038.15	0.139634
1038.28	0.129573
1038.42	0.13811
1038.55	0.137195
1038.69	0.13689
1038.82	0.140549
1038.95	0.133841
1039.09	0.13872
1039.22	0.139634
1039.35	0.133232
1039.49	0.135671
1039.62	0.13628
1039.76	0.13689
1039.89	0.134146
1040.02	0.134756
1040.16	0.140244
1040.29	0.132927
1040.43	0.135976
1040.56	0.139634
1040.69	0.133232
1040.83	0.134756
1040.96	0.138415
1041.09	0.132317
1041.23	0.13628
1041.36	0.1375
1041.5	0.130793
1041.63	0.133232
1041.76	0.13628
1041.9	0.1375
1042.03	0.135061
1042.16	0.138415
1042.3	0.139024
1042.43	0.13811
1042.57	0.135976
1042.7	0.136585
1042.83	0.135976
1042.97	0.137195
1043.1	0.135366
1043.23	0.139939
1043.37	0.137195
1043.5	0.136585
1043.64	0.134146
1043.77	0.134451
1043.9	0.135061
1044.04	0.135976
1044.17	0.135366
1044.31	0.13872
1044.44	0.13628
1044.57	0.136585
1044.71	0.139024
1044.84	0.1375
1044.97	0.13689
1045.11	0.137195
1045.24	0.13628
1045.38	0.129268
1045.51	0.134146
1045.64	0.137805
1045.78	0.135976
1045.91	0.132927
1046.04	0.137195
1046.18	0.132317
1046.31	0.13689
1046.45	0.13811
1046.58	0.133841
1046.71	0.133841
1046.85	0.132012
1046.98	0.135061
1047.11	0.135061
1047.25	0.133537
1047.38	0.136585
1047.52	0.135976
1047.65	0.13872
1047.78	0.135366
1047.92	0.137195
1048.05	0.132317
1048.18	0.133537
1048.32	0.140244
1048.45	0.133537
1048.59	0.139634
1048.72	0.134451
1048.85	0.135061
1048.99	0.134146
1049.12	0.13628
1049.25	0.131707
1049.39	0.133537
1049.52	0.1375
1049.66	0.135366
1049.79	0.13811
1049.92	0.133537
1050.06	0.136585
1050.19	0.134146
1050.33	0.130793
1050.46	0.137805
1050.59	0.134756
1050.73	0.1375
1050.86	0.135366
1050.99	0.135061
1051.13	0.134451
1051.26	0.134756
1051.4	0.135366
1051.53	0.1375
1051.66	0.135671
1051.8	0.133232
1051.93	0.137805
1052.06	0.135671
1052.2	0.134146
1052.33	0.139024
1052.47	0.13811
1052.6	0.13628
1052.73	0.135976
1052.87	0.134146
1053	0.133841
1053.13	0.137805
1053.27	0.13689
1053.4	0.13872
1053.54	0.135976
1053.67	0.132622
1053.8	0.138415
1053.94	0.131707
1054.07	0.134146
1054.2	0.134451
1054.34	0.137195
1054.47	0.135061
1054.61	0.1375
1054.74	0.135976
1054.87	0.133232
1055.01	0.133537
1055.14	0.135061
1055.27	0.140549
1055.41	0.1375
1055.54	0.137195
1055.68	0.131402
1055.81	0.134146
1055.94	0.136585
1056.08	0.1375
1056.21	0.133841
1056.34	0.135061
1056.48	0.134451
1056.61	0.134146
1056.75	0.132317
1056.88	0.1375
1057.01	0.134756
1057.15	0.138415
1057.28	0.139329
1057.41	0.135976
1057.55	0.139634
1057.68	0.13872
1057.82	0.135061
1057.95	0.134146
1058.08	0.132317
1058.22	0.141463
1058.35	0.1375
1058.48	0.135061
1058.62	0.137805
1058.75	0.139939
1058.89	0.132012
1059.02	0.139024
1059.15	0.139024
1059.29	0.13628
1059.42	0.13689
1059.55	0.135061
1059.69	0.139329
1059.82	0.139634
1059.96	0.13689
1060.09	0.134146
1060.22	0.133232
1060.36	0.140854
1060.49	0.137195
1060.62	0.136585
1060.76	0.13628
1060.89	0.137805
1061.03	0.137805
1061.16	0.136585
1061.29	0.135366
1061.43	0.13628
1061.56	0.132927
1061.69	0.13628
1061.83	0.132622
1061.96	0.135976
1062.1	0.135061
1062.23	0.141463
1062.36	0.133232
1062.5	0.139024
1062.63	0.135671
1062.76	0.135366
1062.9	0.135061
1063.03	0.135061
1063.17	0.135061
1063.3	0.134451
1063.43	0.1375
1063.57	0.139024
1063.7	0.131707
1063.83	0.133232
1063.97	0.135976
1064.1	0.135366
1064.23	0.133841
1064.37	0.139024
1064.5	0.135976
1064.64	0.133841
1064.77	0.133537
1064.9	0.135366
1065.04	0.138415
1065.17	0.138415
1065.3	0.131707
1065.44	0.135671
1065.57	0.131402
1065.71	0.132622
1065.84	0.134146
1065.97	0.135976
1066.11	0.134451
1066.24	0.139634
1066.37	0.13628
1066.51	0.137195
1066.64	0.137195
1066.78	0.132012
1066.91	0.139329
1067.04	0.13628
1067.18	0.13872
1067.31	0.13689
1067.44	0.132317
1067.58	0.133841
1067.71	0.135061
1067.85	0.1375
1067.98	0.13811
1068.11	0.132927
1068.25	0.135671
1068.38	0.1375
1068.51	0.136585
1068.65	0.133232
1068.78	0.138415
1068.92	0.134451
1069.05	0.13689
1069.18	0.128659
1069.32	0.135671
1069.45	0.137805
1069.58	0.138415
1069.72	0.133537
1069.85	0.134451
1069.98	0.13689
1070.12	0.134756
1070.25	0.137195
1070.39	0.134146
1070.52	0.137195
1070.65	0.141159
1070.79	0.134756
1070.92	0.13872
1071.05	0.131402
1071.19	0.134146
1071.32	0.1375
1071.46	0.1375
1071.59	0.133232
1071.72	0.132317
1071.86	0.135061
1071.99	0.13689
1072.12	0.133841
1072.26	0.134146
1072.39	0.137195
1072.53	0.135671
1072.66	0.13628
1072.79	0.132927
1072.93	0.134756
1073.06	0.1375
1073.19	0.136585
1073.33	0.135976
1073.46	0.131098
1073.59	0.1375
1073.73	0.134756
1073.86	0.135061
1074	0.135671
1074.13	0.133841
1074.26	0.13689
1074.4	0.132317
1074.53	0.135061
1074.66	0.133537
1074.8	0.133537
1074.93	0.13689
1075.07	0.135061
1075.2	0.135671
1075.33	0.136585
1075.47	0.134146
1075.6	0.13872
1075.73	0.133232
1075.87	0.133841
1076	0.134451
1076.14	0.136585
1076.27	0.132622
1076.4	0.13689
1076.54	0.133537
1076.67	0.138415
1076.8	0.13872
1076.94	0.139329
1077.07	0.135366
1077.2	0.136585
1077.34	0.134756
1077.47	0.135366
1077.61	0.13872
1077.74	0.134756
1077.87	0.138415
1078.01	0.13689
1078.14	0.13628
1078.27	0.137805
1078.41	0.13628
1078.54	0.137805
1078.68	0.135366
1078.81	0.13872
1078.94	0.139939
1079.08	0.135366
1079.21	0.135061
1079.34	0.137195
1079.48	0.140854
1079.61	0.135366
1079.74	0.132622
1079.88	0.133232
1080.01	0.134451
1080.15	0.139634
1080.28	0.141463
1080.41	0.1375
1080.55	0.1375
1080.68	0.133841
1080.81	0.134146
1080.95	0.135671
1081.08	0.134451
1081.22	0.133537
1081.35	0.135671
1081.48	0.13628
1081.62	0.134451
1081.75	0.137805
1081.88	0.135061
1082.02	0.137805
1082.15	0.132927
1082.28	0.13689
1082.42	0.129878
1082.55	0.142378
1082.69	0.136585
1082.82	0.1375
1082.95	0.132927
1083.09	0.132317
1083.22	0.134146
1083.35	0.134451
1083.49	0.139634
1083.62	0.136585
1083.75	0.1375
1083.89	0.135366
1084.02	0.139329
1084.16	0.139329
1084.29	0.137805
1084.42	0.13628
1084.56	0.134756
1084.69	0.1375
1084.82	0.13811
1084.96	0.135061
1085.09	0.135061
1085.23	0.1375
1085.36	0.137805
1085.49	0.139634
1085.63	0.135671
1085.76	0.137805
1085.89	0.137195
1086.03	0.13872
1086.16	0.132622
1086.29	0.135061
1086.43	0.13689
1086.56	0.137805
1086.7	0.137805
1086.83	0.13689
1086.96	0.138415
1087.1	0.139634
1087.23	0.131707
1087.36	0.13628
1087.5	0.134146
1087.63	0.132622
1087.76	0.134451
1087.9	0.137195
1088.03	0.132927
1088.17	0.13628
1088.3	0.134756
1088.43	0.13628
1088.57	0.137195
1088.7	0.139024
1088.83	0.135061
1088.97	0.133537
1089.1	0.137195
1089.24	0.132622
1089.37	0.134756
1089.5	0.136585
1089.64	0.142683
1089.77	0.1375
1089.9	0.135061
1090.04	0.133232
1090.17	0.135976
1090.3	0.13811
1090.44	0.133232
1090.57	0.130183
1090.71	0.138415
1090.84	0.139329
1090.97	0.137195
1091.11	0.134146
1091.24	0.13811
1091.37	0.137195
1091.51	0.13811
1091.64	0.134146
1091.77	0.134146
1091.91	0.140854
1092.04	0.135366
1092.18	0.131402
1092.31	0.141768
1092.44	0.136585
1092.58	0.13872
1092.71	0.132927
1092.84	0.137195
1092.98	0.133232
1093.11	0.138415
1093.24	0.132927
1093.38	0.132317
1093.51	0.134756
1093.65	0.1375
1093.78	0.137195
1093.91	0.139329
1094.05	0.138415
1094.18	0.132622
1094.31	0.135061
1094.45	0.136585
1094.58	0.13628
1094.71	0.135061
1094.85	0.141463
1094.98	0.1375
1095.12	0.134146
1095.25	0.140549
1095.38	0.13811
1095.52	0.133841
1095.65	0.134451
1095.78	0.133841
1095.92	0.137805
1096.05	0.1375
1096.18	0.13872
1096.32	0.133537
1096.45	0.133537
1096.59	0.137805
1096.72	0.137195
1096.85	0.135671
1096.99	0.136585
1097.12	0.13628
1097.25	0.13689
1097.39	0.132622
1097.52	0.133537
1097.65	0.133537
1097.79	0.135671
1097.92	0.134146
1098.06	0.1375
1098.19	0.135671
1098.32	0.134451
1098.46	0.135671
1098.59	0.13872
1098.72	0.136585
1098.86	0.134451
1098.99	0.135671
1099.12	0.133537
1099.26	0.140854
1099.39	0.140244
1099.53	0.139024
1099.66	0.130183
1099.79	0.134756
1099.93	0.139329
1100.06	0.138415
1100.19	0.137195
1100.33	0.139939
1100.46	0.135671
1100.59	0.132927
1100.73	0.139939
1100.86	0.137805
1100.99	0.135671
1101.13	0.136585
1101.26	0.137195
1101.4	0.135061
1101.53	0.136585
1101.66	0.135976
1101.8	0.137805
1101.93	0.136585
1102.06	0.134451
1102.2	0.130793
1102.33	0.133232
1102.46	0.13689
1102.6	0.138415
1102.73	0.139024
1102.87	0.139024
1103	0.132927
1103.13	0.135366
1103.27	0.138415
1103.4	0.139634
1103.53	0.135671
1103.67	0.137195
1103.8	0.135366
1103.93	0.141768
1104.07	0.132317
1104.2	0.1375
1104.34	0.135061
1104.47	0.131098
1104.6	0.134756
1104.74	0.139024
1104.87	0.13689
1105	0.134451
1105.14	0.139329
1105.27	0.137195
1105.4	0.139329
1105.54	0.139634
1105.67	0.135976
1105.8	0.137195
1105.94	0.135671
1106.07	0.133841
1106.21	0.134451
1106.34	0.132622
1106.47	0.135061
1106.61	0.135061
1106.74	0.135671
1106.87	0.135976
1107.01	0.133232
1107.14	0.136585
1107.27	0.135671
1107.41	0.13628
1107.54	0.13628

