Source: Spectrum Viewer

Chart: Pulse Spectrum

Series: 
Wavelength (nm)	S (a.u.)
617.638	0.0620327
617.773	0.0621711
617.908	0.0607865
618.043	0.0625865
618.178	0.060648
618.313	0.0620327
618.448	0.0591249
618.583	0.0632789
618.718	0.0628635
618.853	0.0617557
618.988	0.0621711
619.123	0.0592634
619.258	0.0630019
619.394	0.0624481
619.529	0.0610634
619.664	0.0620327
619.799	0.0621711
619.934	0.0612019
620.069	0.0624481
620.204	0.060925
620.339	0.0631404
620.474	0.0610634
620.609	0.0592634
620.744	0.0634173
620.879	0.0618942
621.014	0.0616173
621.149	0.0613403
621.284	0.0624481
621.419	0.0612019
621.554	0.0600942
621.689	0.0624481
621.825	0.0607865
621.96	0.0628635
622.095	0.0617557
622.23	0.0639712
622.365	0.0607865
622.5	0.0623096
622.635	0.0621711
622.77	0.0602326
622.905	0.0612019
623.04	0.0616173
623.175	0.0620327
623.31	0.0623096
623.445	0.0596788
623.58	0.0630019
623.715	0.0620327
623.85	0.0605096
623.985	0.0620327
624.12	0.0618942
624.255	0.0636943
624.39	0.0636943
624.525	0.0600942
624.661	0.062725
624.796	0.060925
624.931	0.0634173
625.066	0.0618942
625.201	0.0625865
625.336	0.0610634
625.471	0.0618942
625.606	0.0618942
625.741	0.0630019
625.876	0.0625865
626.011	0.0628635
626.146	0.0624481
626.281	0.0603711
626.416	0.0634173
626.551	0.0621711
626.686	0.0635558
626.821	0.0613403
626.956	0.0610634
627.091	0.0635558
627.226	0.062725
627.361	0.0631404
627.496	0.0591249
627.631	0.0607865
627.766	0.0600942
627.901	0.0600942
628.036	0.0614788
628.171	0.0603711
628.307	0.0595403
628.442	0.0623096
628.577	0.0614788
628.712	0.0625865
628.847	0.0612019
628.982	0.0620327
629.117	0.0618942
629.252	0.0620327
629.387	0.0625865
629.522	0.0610634
629.657	0.0630019
629.792	0.0623096
629.927	0.0630019
630.062	0.0625865
630.197	0.0628635
630.332	0.0621711
630.467	0.0636943
630.602	0.0591249
630.737	0.0612019
630.872	0.0636943
631.007	0.0613403
631.142	0.0610634
631.277	0.0620327
631.412	0.0630019
631.547	0.0624481
631.682	0.0607865
631.817	0.0605096
631.952	0.0621711
632.087	0.0610634
632.222	0.0621711
632.357	0.060648
632.492	0.0613403
632.627	0.0612019
632.762	0.0624481
632.897	0.0596788
633.032	0.0630019
633.167	0.0594018
633.302	0.0624481
633.437	0.0603711
633.572	0.0634173
633.707	0.0612019
633.842	0.0624481
633.978	0.0610634
634.113	0.0617557
634.248	0.0602326
634.383	0.0605096
634.518	0.0621711
634.653	0.0620327
634.788	0.0612019
634.923	0.0612019
635.058	0.0623096
635.193	0.0614788
635.328	0.0625865
635.463	0.0623096
635.598	0.0616173
635.733	0.062725
635.868	0.062725
636.003	0.0642481
636.138	0.0636943
636.273	0.0610634
636.408	0.0620327
636.543	0.0599557
636.678	0.0620327
636.813	0.0610634
636.948	0.0584326
637.083	0.0614788
637.218	0.060925
637.353	0.0621711
637.488	0.0610634
637.623	0.062725
637.758	0.0614788
637.893	0.0603711
638.028	0.062725
638.163	0.0631404
638.298	0.0607865
638.433	0.0616173
638.568	0.0625865
638.703	0.0594018
638.838	0.0599557
638.973	0.0623096
639.108	0.0618942
639.243	0.0638327
639.378	0.0623096
639.513	0.0613403
639.648	0.0600942
639.783	0.0610634
639.918	0.0607865
640.053	0.0610634
640.188	0.0616173
640.323	0.0621711
640.458	0.0605096
640.593	0.0635558
640.728	0.0605096
640.863	0.0607865
640.998	0.0620327
641.133	0.0623096
641.268	0.0613403
641.403	0.0617557
641.538	0.0624481
641.673	0.0630019
641.808	0.062725
641.943	0.0628635
642.078	0.0607865
642.213	0.0621711
642.348	0.0625865
642.483	0.0612019
642.618	0.0613403
642.753	0.0591249
642.888	0.062725
643.023	0.062725
643.158	0.0605096
643.293	0.0612019
643.428	0.0628635
643.563	0.0624481
643.698	0.0614788
643.833	0.0630019
643.968	0.0632789
644.103	0.0612019
644.237	0.0623096
644.372	0.0616173
644.507	0.0618942
644.642	0.0618942
644.777	0.0607865
644.912	0.0598172
645.047	0.062725
645.182	0.0616173
645.317	0.0610634
645.452	0.0625865
645.587	0.0605096
645.722	0.0628635
645.857	0.0612019
645.992	0.0635558
646.127	0.0621711
646.262	0.0635558
646.397	0.0613403
646.532	0.0624481
646.667	0.0616173
646.802	0.0610634
646.937	0.0632789
647.072	0.0623096
647.207	0.062725
647.342	0.0612019
647.477	0.0632789
647.612	0.0623096
647.747	0.0612019
647.882	0.0617557
648.017	0.060925
648.152	0.0621711
648.287	0.0610634
648.422	0.0617557
648.557	0.058848
648.692	0.062725
648.827	0.0617557
648.962	0.0634173
649.097	0.0613403
649.232	0.0625865
649.367	0.0638327
649.502	0.0625865
649.637	0.0613403
649.772	0.0624481
649.906	0.0600942
650.041	0.0614788
650.176	0.0617557
650.311	0.060925
650.446	0.0624481
650.581	0.0625865
650.716	0.0602326
650.851	0.062725
650.986	0.060648
651.121	0.0616173
651.256	0.0612019
651.391	0.0625865
651.526	0.058848
651.661	0.062725
651.796	0.0607865
651.931	0.0595403
652.066	0.060925
652.201	0.0625865
652.336	0.0598172
652.471	0.0620327
652.606	0.0610634
652.741	0.0607865
652.876	0.0632789
653.011	0.0620327
653.146	0.0613403
653.281	0.062725
653.415	0.0602326
653.55	0.0613403
653.685	0.0617557
653.82	0.0623096
653.955	0.0600942
654.09	0.0612019
654.225	0.0605096
654.36	0.0613403
654.495	0.0605096
654.63	0.0632789
654.765	0.0621711
654.9	0.0618942
655.035	0.0614788
655.17	0.0631404
655.305	0.0623096
655.44	0.0618942
655.575	0.0603711
655.71	0.060925
655.845	0.0628635
655.98	0.0598172
656.115	0.0617557
656.25	0.0610634
656.384	0.0624481
656.519	0.0616173
656.654	0.0603711
656.789	0.0618942
656.924	0.0596788
657.059	0.0624481
657.194	0.0623096
657.329	0.0602326
657.464	0.0624481
657.599	0.0621711
657.734	0.0620327
657.869	0.0613403
658.004	0.0617557
658.139	0.0599557
658.274	0.0603711
658.409	0.0613403
658.544	0.060648
658.679	0.0607865
658.813	0.0614788
658.948	0.0623096
659.083	0.0617557
659.218	0.0635558
659.353	0.0603711
659.488	0.0618942
659.623	0.0625865
659.758	0.060925
659.893	0.0605096
660.028	0.0621711
660.163	0.0616173
660.298	0.0617557
660.433	0.0617557
660.568	0.0623096
660.703	0.0616173
660.838	0.0614788
660.972	0.0624481
661.107	0.0621711
661.242	0.0614788
661.377	0.0594018
661.512	0.0607865
661.647	0.0621711
661.782	0.0605096
661.917	0.0623096
662.052	0.0630019
662.187	0.0605096
662.322	0.0628635
662.457	0.0631404
662.592	0.0618942
662.727	0.0613403
662.862	0.0634173
662.996	0.0614788
663.131	0.0591249
663.266	0.0624481
663.401	0.0614788
663.536	0.060925
663.671	0.0614788
663.806	0.0630019
663.941	0.0617557
664.076	0.0630019
664.211	0.0605096
664.346	0.0632789
664.481	0.0602326
664.616	0.0614788
664.75	0.0616173
664.885	0.062725
665.02	0.0623096
665.155	0.0600942
665.29	0.0612019
665.425	0.0616173
665.56	0.0612019
665.695	0.0625865
665.83	0.0613403
665.965	0.0617557
666.1	0.0628635
666.235	0.0616173
666.37	0.0616173
666.504	0.0603711
666.639	0.0623096
666.774	0.0634173
666.909	0.0636943
667.044	0.0592634
667.179	0.0617557
667.314	0.0618942
667.449	0.0634173
667.584	0.062725
667.719	0.0621711
667.854	0.0614788
667.989	0.0628635
668.123	0.0623096
668.258	0.0621711
668.393	0.0614788
668.528	0.0607865
668.663	0.0618942
668.798	0.0624481
668.933	0.0624481
669.068	0.0612019
669.203	0.0624481
669.338	0.0621711
669.473	0.0630019
669.607	0.060925
669.742	0.0620327
669.877	0.0625865
670.012	0.0600942
670.147	0.0618942
670.282	0.0618942
670.417	0.0621711
670.552	0.0613403
670.687	0.0618942
670.822	0.0614788
670.957	0.0599557
671.091	0.0628635
671.226	0.0605096
671.361	0.0623096
671.496	0.0613403
671.631	0.062725
671.766	0.0625865
671.901	0.0616173
672.036	0.0614788
672.171	0.0603711
672.306	0.0607865
672.44	0.0620327
672.575	0.0598172
672.71	0.0617557
672.845	0.0616173
672.98	0.060925
673.115	0.0607865
673.25	0.0624481
673.385	0.0625865
673.52	0.0618942
673.655	0.0617557
673.789	0.0632789
673.924	0.060648
674.059	0.0591249
674.194	0.0616173
674.329	0.0623096
674.464	0.0614788
674.599	0.0624481
674.734	0.0602326
674.869	0.0623096
675.003	0.0618942
675.138	0.0602326
675.273	0.0618942
675.408	0.0621711
675.543	0.0623096
675.678	0.0595403
675.813	0.0612019
675.948	0.0625865
676.083	0.0624481
676.217	0.0616173
676.352	0.0617557
676.487	0.062725
676.622	0.0616173
676.757	0.0618942
676.892	0.0595403
677.027	0.0628635
677.162	0.0614788
677.297	0.060648
677.431	0.0616173
677.566	0.0610634
677.701	0.0613403
677.836	0.0621711
677.971	0.0625865
678.106	0.0628635
678.241	0.0632789
678.376	0.0631404
678.511	0.0612019
678.645	0.0612019
678.78	0.0607865
678.915	0.0618942
679.05	0.060925
679.185	0.0603711
679.32	0.0624481
679.455	0.0641097
679.59	0.0607865
679.724	0.0612019
679.859	0.0638327
679.994	0.0598172
680.129	0.0612019
680.264	0.062725
680.399	0.0602326
680.534	0.0618942
680.669	0.0638327
680.803	0.0610634
680.938	0.0616173
681.073	0.0616173
681.208	0.0617557
681.343	0.0621711
681.478	0.0613403
681.613	0.0623096
681.748	0.0612019
681.882	0.0645251
682.017	0.060648
682.152	0.0623096
682.287	0.0623096
682.422	0.0621711
682.557	0.0617557
682.692	0.0612019
682.827	0.0621711
682.961	0.0628635
683.096	0.0634173
683.231	0.0632789
683.366	0.0607865
683.501	0.062725
683.636	0.0603711
683.771	0.0603711
683.906	0.0603711
684.04	0.0628635
684.175	0.0605096
684.31	0.0617557
684.445	0.062725
684.58	0.0607865
684.715	0.0610634
684.85	0.062725
684.984	0.0607865
685.119	0.0614788
685.254	0.0612019
685.389	0.0621711
685.524	0.0621711
685.659	0.0623096
685.794	0.060648
685.928	0.0614788
686.063	0.0635558
686.198	0.0624481
686.333	0.0617557
686.468	0.0612019
686.603	0.0618942
686.738	0.062725
686.872	0.0610634
687.007	0.0618942
687.142	0.0630019
687.277	0.0617557
687.412	0.0602326
687.547	0.0630019
687.682	0.0621711
687.816	0.0630019
687.951	0.0617557
688.086	0.062725
688.221	0.0613403
688.356	0.0616173
688.491	0.0620327
688.626	0.0610634
688.76	0.0616173
688.895	0.060648
689.03	0.0614788
689.165	0.062725
689.3	0.0613403
689.435	0.0610634
689.57	0.0635558
689.704	0.0616173
689.839	0.0612019
689.974	0.0600942
690.109	0.0618942
690.244	0.0610634
690.379	0.0639712
690.513	0.0623096
690.648	0.0625865
690.783	0.0620327
690.918	0.0613403
691.053	0.0624481
691.188	0.0625865
691.323	0.0621711
691.457	0.0610634
691.592	0.0610634
691.727	0.0616173
691.862	0.060648
691.997	0.0641097
692.132	0.0602326
692.266	0.0620327
692.401	0.0628635
692.536	0.0614788
692.671	0.0610634
692.806	0.0618942
692.941	0.0610634
693.075	0.0614788
693.21	0.0617557
693.345	0.0605096
693.48	0.0610634
693.615	0.0613403
693.75	0.0639712
693.885	0.0613403
694.019	0.0616173
694.154	0.0618942
694.289	0.0621711
694.424	0.0599557
694.559	0.0631404
694.694	0.0605096
694.828	0.0605096
694.963	0.062725
695.098	0.0618942
695.233	0.0603711
695.368	0.0617557
695.503	0.0605096
695.637	0.0616173
695.772	0.0618942
695.907	0.0630019
696.042	0.0618942
696.177	0.0613403
696.312	0.0630019
696.446	0.0616173
696.581	0.0618942
696.716	0.0617557
696.851	0.060648
696.986	0.0624481
697.12	0.0616173
697.255	0.0635558
697.39	0.0614788
697.525	0.0623096
697.66	0.060648
697.795	0.0616173
697.929	0.0618942
698.064	0.0632789
698.199	0.0621711
698.334	0.0603711
698.469	0.058571
698.604	0.0617557
698.738	0.0628635
698.873	0.060925
699.008	0.0618942
699.143	0.0618942
699.278	0.0624481
699.412	0.0605096
699.547	0.0618942
699.682	0.0621711
699.817	0.0636943
699.952	0.0620327
700.087	0.0631404
700.221	0.0596788
700.356	0.0612019
700.491	0.0603711
700.626	0.0628635
700.761	0.0620327
700.895	0.0614788
701.03	0.0618942
701.165	0.0618942
701.3	0.0607865
701.435	0.0605096
701.57	0.0643866
701.704	0.0631404
701.839	0.0621711
701.974	0.0618942
702.109	0.0610634
702.244	0.0603711
702.378	0.0621711
702.513	0.0623096
702.648	0.060648
702.783	0.060925
702.918	0.0616173
703.052	0.0602326
703.187	0.0613403
703.322	0.0607865
703.457	0.0617557
703.592	0.0634173
703.727	0.0612019
703.861	0.060648
703.996	0.060648
704.131	0.0623096
704.266	0.0636943
704.401	0.0623096
704.535	0.0603711
704.67	0.0599557
704.805	0.062725
704.94	0.0614788
705.075	0.0620327
705.209	0.0618942
705.344	0.0623096
705.479	0.0610634
705.614	0.0621711
705.749	0.0623096
705.883	0.0625865
706.018	0.0614788
706.153	0.0617557
706.288	0.0610634
706.423	0.0621711
706.557	0.0638327
706.692	0.0617557
706.827	0.060648
706.962	0.060648
707.097	0.0624481
707.231	0.0636943
707.366	0.0612019
707.501	0.0621711
707.636	0.060925
707.771	0.0596788
707.905	0.0621711
708.04	0.0595403
708.175	0.0621711
708.31	0.0616173
708.445	0.0602326
708.579	0.062725
708.714	0.0616173
708.849	0.060648
708.984	0.0624481
709.118	0.060925
709.253	0.0598172
709.388	0.0618942
709.523	0.060925
709.658	0.0621711
709.792	0.0625865
709.927	0.0614788
710.062	0.0607865
710.197	0.0617557
710.332	0.0636943
710.466	0.0634173
710.601	0.0613403
710.736	0.0602326
710.871	0.0614788
711.006	0.0623096
711.14	0.0624481
711.275	0.0594018
711.41	0.0607865
711.545	0.0620327
711.679	0.062725
711.814	0.0618942
711.949	0.0598172
712.084	0.060648
712.219	0.0630019
712.353	0.0605096
712.488	0.0624481
712.623	0.0625865
712.758	0.0632789
712.892	0.0628635
713.027	0.0632789
713.162	0.062725
713.297	0.0613403
713.432	0.0613403
713.566	0.0612019
713.701	0.0603711
713.836	0.0605096
713.971	0.0623096
714.105	0.0634173
714.24	0.062725
714.375	0.0636943
714.51	0.0638327
714.645	0.0623096
714.779	0.0610634
714.914	0.060648
715.049	0.0625865
715.184	0.0638327
715.318	0.0617557
715.453	0.0630019
715.588	0.0631404
715.723	0.0617557
715.858	0.0623096
715.992	0.0613403
716.127	0.0621711
716.262	0.0617557
716.397	0.0617557
716.531	0.060648
716.666	0.0631404
716.801	0.0635558
716.936	0.0621711
717.07	0.0598172
717.205	0.0635558
717.34	0.0631404
717.475	0.0630019
717.61	0.062725
717.744	0.062725
717.879	0.062725
718.014	0.0618942
718.149	0.0625865
718.283	0.060648
718.418	0.0592634
718.553	0.0617557
718.688	0.0632789
718.822	0.0618942
718.957	0.0625865
719.092	0.0625865
719.227	0.0610634
719.361	0.0635558
719.496	0.0616173
719.631	0.0616173
719.766	0.0617557
719.9	0.0618942
720.035	0.0617557
720.17	0.0618942
720.305	0.0631404
720.44	0.0613403
720.574	0.0636943
720.709	0.060648
720.844	0.0625865
720.979	0.062725
721.113	0.0602326
721.248	0.0623096
721.383	0.0638327
721.518	0.0625865
721.652	0.0599557
721.787	0.060925
721.922	0.0623096
722.057	0.0610634
722.191	0.0610634
722.326	0.060648
722.461	0.0599557
722.596	0.0603711
722.73	0.0607865
722.865	0.0617557
723	0.0610634
723.135	0.0624481
723.269	0.0620327
723.404	0.0596788
723.539	0.0623096
723.674	0.0638327
723.808	0.0634173
723.943	0.0620327
724.078	0.0632789
724.213	0.0628635
724.347	0.064802
724.482	0.0613403
724.617	0.060648
724.752	0.0625865
724.886	0.0613403
725.021	0.0617557
725.156	0.0620327
725.291	0.0612019
725.425	0.0603711
725.56	0.0636943
725.695	0.0616173
725.829	0.0613403
725.964	0.0600942
726.099	0.0617557
726.234	0.060648
726.368	0.0618942
726.503	0.0621711
726.638	0.0607865
726.773	0.0610634
726.907	0.0620327
727.042	0.0623096
727.177	0.0603711
727.312	0.0610634
727.446	0.0623096
727.581	0.0620327
727.716	0.0631404
727.851	0.0595403
727.985	0.0621711
728.12	0.062725
728.255	0.0624481
728.389	0.0630019
728.524	0.0624481
728.659	0.0600942
728.794	0.0596788
728.928	0.0614788
729.063	0.0616173
729.198	0.0620327
729.333	0.0614788
729.467	0.0632789
729.602	0.0625865
729.737	0.0624481
729.872	0.0624481
730.006	0.0607865
730.141	0.0620327
730.276	0.060648
730.41	0.0618942
730.545	0.0613403
730.68	0.0612019
730.815	0.0591249
730.949	0.0616173
731.084	0.0618942
731.219	0.0618942
731.354	0.0636943
731.488	0.0576018
731.623	0.060925
731.758	0.0607865
731.892	0.060925
732.027	0.0612019
732.162	0.060925
732.297	0.062725
732.431	0.0616173
732.566	0.0612019
732.701	0.0630019
732.835	0.0623096
732.97	0.0621711
733.105	0.0602326
733.24	0.060648
733.374	0.0623096
733.509	0.0613403
733.644	0.0599557
733.779	0.0628635
733.913	0.062725
734.048	0.060925
734.183	0.0612019
734.317	0.0623096
734.452	0.0624481
734.587	0.0618942
734.722	0.0623096
734.856	0.0636943
734.991	0.0617557
735.126	0.0602326
735.26	0.0620327
735.395	0.0624481
735.53	0.0617557
735.665	0.0594018
735.799	0.0599557
735.934	0.0613403
736.069	0.0645251
736.203	0.060925
736.338	0.0613403
736.473	0.0624481
736.607	0.0631404
736.742	0.0616173
736.877	0.0618942
737.012	0.0607865
737.146	0.0650789
737.281	0.0613403
737.416	0.0610634
737.55	0.0620327
737.685	0.0613403
737.82	0.0631404
737.955	0.0631404
738.089	0.0612019
738.224	0.0607865
738.359	0.0623096
738.493	0.0645251
738.628	0.0602326
738.763	0.0635558
738.897	0.0638327
739.032	0.0620327
739.167	0.0630019
739.302	0.0641097
739.436	0.0607865
739.571	0.060925
739.706	0.0613403
739.84	0.0607865
739.975	0.0614788
740.11	0.060925
740.244	0.062725
740.379	0.0639712
740.514	0.0634173
740.649	0.0632789
740.783	0.0631404
740.918	0.0610634
741.053	0.060925
741.187	0.0631404
741.322	0.0607865
741.457	0.0600942
741.591	0.0603711
741.726	0.0630019
741.861	0.062725
741.996	0.0617557
742.13	0.0610634
742.265	0.0595403
742.4	0.0630019
742.534	0.0630019
742.669	0.0621711
742.804	0.060648
742.938	0.0616173
743.073	0.0631404
743.208	0.0617557
743.342	0.0623096
743.477	0.0613403
743.612	0.0625865
743.747	0.0613403
743.881	0.0613403
744.016	0.0612019
744.151	0.0602326
744.285	0.0610634
744.42	0.0600942
744.555	0.0630019
744.689	0.0610634
744.824	0.0617557
744.959	0.0618942
745.093	0.060925
745.228	0.0625865
745.363	0.0614788
745.497	0.0614788
745.632	0.0610634
745.767	0.0628635
745.901	0.0639712
746.036	0.062725
746.171	0.0610634
746.305	0.0634173
746.44	0.0621711
746.575	0.0620327
746.71	0.0639712
746.844	0.0625865
746.979	0.062725
747.114	0.0638327
747.248	0.0618942
747.383	0.0598172
747.518	0.062725
747.652	0.0616173
747.787	0.0616173
747.922	0.0635558
748.056	0.0617557
748.191	0.0628635
748.326	0.0618942
748.46	0.0616173
748.595	0.0610634
748.73	0.0620327
748.864	0.0610634
748.999	0.0624481
749.134	0.0596788
749.268	0.0614788
749.403	0.0630019
749.538	0.0613403
749.672	0.0625865
749.807	0.0613403
749.942	0.0623096
750.076	0.0618942
750.211	0.0617557
750.346	0.0628635
750.48	0.0618942
750.615	0.060648
750.75	0.060925
750.884	0.0603711
751.019	0.0612019
751.154	0.0612019
751.288	0.0614788
751.423	0.0610634
751.558	0.0595403
751.692	0.0603711
751.827	0.0614788
751.962	0.0630019
752.096	0.0607865
752.231	0.0623096
752.366	0.0613403
752.5	0.0592634
752.635	0.0613403
752.77	0.0625865
752.904	0.0618942
753.039	0.0594018
753.174	0.0624481
753.308	0.0625865
753.443	0.0605096
753.578	0.0621711
753.712	0.0610634
753.847	0.0618942
753.982	0.0616173
754.116	0.0618942
754.251	0.0594018
754.386	0.0614788
754.52	0.0620327
754.655	0.0605096
754.79	0.0613403
754.924	0.0621711
755.059	0.0617557
755.194	0.0628635
755.328	0.0630019
755.463	0.0635558
755.597	0.062725
755.732	0.0624481
755.867	0.0607865
756.001	0.0620327
756.136	0.0616173
756.271	0.0621711
756.405	0.060648
756.54	0.0618942
756.675	0.0616173
756.809	0.0625865
756.944	0.0616173
757.079	0.0634173
757.213	0.0636943
757.348	0.0624481
757.483	0.0650789
757.617	0.0600942
757.752	0.0607865
757.887	0.0610634
758.021	0.0623096
758.156	0.0624481
758.29	0.060925
758.425	0.0607865
758.56	0.0592634
758.694	0.0638327
758.829	0.0612019
758.964	0.060648
759.098	0.0634173
759.233	0.0623096
759.368	0.0616173
759.502	0.0614788
759.637	0.0616173
759.772	0.0628635
759.906	0.0621711
760.041	0.0620327
760.175	0.060648
760.31	0.0634173
760.445	0.0613403
760.579	0.0612019
760.714	0.0610634
760.849	0.0613403
760.983	0.0639712
761.118	0.0625865
761.253	0.0621711
761.387	0.0599557
761.522	0.060648
761.656	0.0630019
761.791	0.0602326
761.926	0.0645251
762.06	0.060648
762.195	0.0607865
762.33	0.0613403
762.464	0.0618942
762.599	0.0614788
762.733	0.0624481
762.868	0.0624481
763.003	0.0634173
763.137	0.0616173
763.272	0.0616173
763.407	0.0617557
763.541	0.0630019
763.676	0.0603711
763.811	0.0628635
763.945	0.0616173
764.08	0.0620327
764.214	0.0623096
764.349	0.0610634
764.484	0.0620327
764.618	0.0607865
764.753	0.0589864
764.888	0.0618942
765.022	0.0634173
765.157	0.0616173
765.291	0.0614788
765.426	0.0634173
765.561	0.0599557
765.695	0.0621711
765.83	0.0612019
765.965	0.0607865
766.099	0.062725
766.234	0.0621711
766.368	0.060925
766.503	0.0614788
766.638	0.0603711
766.772	0.0607865
766.907	0.0628635
767.041	0.0630019
767.176	0.0642481
767.311	0.0618942
767.445	0.0605096
767.58	0.0620327
767.715	0.0602326
767.849	0.0620327
767.984	0.0617557
768.118	0.0617557
768.253	0.0614788
768.388	0.0631404
768.522	0.0621711
768.657	0.0620327
768.791	0.0630019
768.926	0.0618942
769.061	0.0617557
769.195	0.0612019
769.33	0.062725
769.465	0.0617557
769.599	0.060648
769.734	0.0624481
769.868	0.0617557
770.003	0.0620327
770.138	0.0607865
770.272	0.0617557
770.407	0.0616173
770.541	0.062725
770.676	0.0610634
770.811	0.0618942
770.945	0.0616173
771.08	0.0614788
771.214	0.0610634
771.349	0.0623096
771.484	0.0624481
771.618	0.062725
771.753	0.0612019
771.887	0.0620327
772.022	0.062725
772.157	0.0599557
772.291	0.0618942
772.426	0.0630019
772.56	0.0623096
772.695	0.0625865
772.83	0.0630019
772.964	0.0613403
773.099	0.0602326
773.233	0.0623096
773.368	0.0631404
773.503	0.0616173
773.637	0.0618942
773.772	0.0628635
773.906	0.0594018
774.041	0.0620327
774.176	0.0632789
774.31	0.0632789
774.445	0.0636943
774.579	0.060925
774.714	0.0624481
774.849	0.0598172
774.983	0.0624481
775.118	0.0603711
775.252	0.0594018
775.387	0.0595403
775.522	0.0620327
775.656	0.0612019
775.791	0.0630019
775.925	0.0621711
776.06	0.0614788
776.195	0.0598172
776.329	0.0613403
776.464	0.0620327
776.598	0.0625865
776.733	0.0628635
776.868	0.0625865
777.002	0.0621711
777.137	0.0613403
777.271	0.0634173
777.406	0.0620327
777.54	0.0613403
777.675	0.0624481
777.81	0.0616173
777.944	0.0616173
778.079	0.062725
778.213	0.0603711
778.348	0.0625865
778.483	0.0603711
778.617	0.0624481
778.752	0.0620327
778.886	0.0635558
779.021	0.0624481
779.155	0.0631404
779.29	0.0614788
779.425	0.0638327
779.559	0.0600942
779.694	0.062725
779.828	0.0628635
779.963	0.0618942
780.098	0.062725
780.232	0.0614788
780.367	0.0623096
780.501	0.0620327
780.636	0.0632789
780.77	0.0635558
780.905	0.060648
781.04	0.0614788
781.174	0.0612019
781.309	0.0623096
781.443	0.0621711
781.578	0.0605096
781.712	0.0638327
781.847	0.0581556
781.982	0.0600942
782.116	0.0620327
782.251	0.0616173
782.385	0.0600942
782.52	0.0599557
782.654	0.0628635
782.789	0.0625865
782.924	0.0631404
783.058	0.0592634
783.193	0.0616173
783.327	0.0631404
783.462	0.0616173
783.596	0.062725
783.731	0.0625865
783.866	0.0632789
784	0.0620327
784.135	0.060648
784.269	0.0643866
784.404	0.0620327
784.538	0.0618942
784.673	0.0621711
784.808	0.0630019
784.942	0.060648
785.077	0.0621711
785.211	0.0605096
785.346	0.0612019
785.48	0.0620327
785.615	0.0620327
785.75	0.0621711
785.884	0.0621711
786.019	0.0624481
786.153	0.0624481
786.288	0.0602326
786.422	0.0613403
786.557	0.0621711
786.691	0.0613403
786.826	0.0617557
786.961	0.0610634
787.095	0.0620327
787.23	0.0616173
787.364	0.0630019
787.499	0.0623096
787.633	0.0631404
787.768	0.0610634
787.902	0.0623096
788.037	0.0607865
788.172	0.0639712
788.306	0.0620327
788.441	0.0625865
788.575	0.0623096
788.71	0.0598172
788.844	0.0600942
788.979	0.0612019
789.113	0.0618942
789.248	0.0618942
789.383	0.0618942
789.517	0.0618942
789.652	0.060925
789.786	0.0605096
789.921	0.0620327
790.055	0.062725
790.19	0.0596788
790.324	0.0616173
790.459	0.0620327
790.594	0.0602326
790.728	0.0616173
790.863	0.0620327
790.997	0.0625865
791.132	0.0602326
791.266	0.0616173
791.401	0.0607865
791.535	0.0621711
791.67	0.0635558
791.804	0.0636943
791.939	0.0624481
792.074	0.0635558
792.208	0.0617557
792.343	0.0617557
792.477	0.0605096
792.612	0.0635558
792.746	0.060648
792.881	0.0616173
793.015	0.062725
793.15	0.0623096
793.284	0.0612019
793.419	0.062725
793.553	0.0630019
793.688	0.0616173
793.823	0.0624481
793.957	0.0645251
794.092	0.0616173
794.226	0.0617557
794.361	0.0621711
794.495	0.0618942
794.63	0.0600942
794.764	0.0623096
794.899	0.0596788
795.033	0.060925
795.168	0.0631404
795.302	0.0643866
795.437	0.0613403
795.572	0.0613403
795.706	0.0618942
795.841	0.0645251
795.975	0.0613403
796.11	0.0614788
796.244	0.0607865
796.379	0.0617557
796.513	0.0616173
796.648	0.0620327
796.782	0.0617557
796.917	0.0623096
797.051	0.0631404
797.186	0.0599557
797.32	0.0623096
797.455	0.0616173
797.589	0.0630019
797.724	0.0595403
797.859	0.0639712
797.993	0.0607865
798.128	0.0591249
798.262	0.0617557
798.397	0.0614788
798.531	0.0613403
798.666	0.0628635
798.8	0.0638327
798.935	0.0641097
799.069	0.0616173
799.204	0.0616173
799.338	0.0617557
799.473	0.064802
799.607	0.0625865
799.742	0.0592634
799.876	0.0635558
800.011	0.0628635
800.145	0.0623096
800.28	0.0642481
800.414	0.0616173
800.549	0.0617557
800.683	0.0617557
800.818	0.0610634
800.953	0.0636943
801.087	0.0618942
801.222	0.0631404
801.356	0.0613403
801.491	0.062725
801.625	0.0636943
801.76	0.0617557
801.894	0.0628635
802.029	0.0618942
802.163	0.0623096
802.298	0.0596788
802.432	0.0625865
802.567	0.0628635
802.701	0.0632789
802.836	0.0643866
802.97	0.0618942
803.105	0.0617557
803.239	0.0635558
803.374	0.0625865
803.508	0.0635558
803.643	0.0641097
803.777	0.0623096
803.912	0.0630019
804.046	0.0630019
804.181	0.062725
804.315	0.0603711
804.45	0.0632789
804.584	0.0646635
804.719	0.0654943
804.853	0.0638327
804.988	0.064802
805.122	0.0639712
805.257	0.0650789
805.391	0.0649405
805.526	0.0663251
805.66	0.0660482
805.795	0.0660482
805.929	0.0672944
806.064	0.0688175
806.198	0.0702022
806.333	0.0697868
806.467	0.0695098
806.602	0.0725561
806.736	0.0736638
806.871	0.079064
807.005	0.0952645
807.14	0.155082
807.274	0.257131
807.409	0.185821
807.543	0.186375
807.678	0.243838
807.812	0.486292
807.947	0.657713
808.081	0.535309
808.216	0.516339
808.35	0.715314
808.485	1
808.619	0.68499
808.754	0.493908
808.888	0.463722
809.023	0.253531
809.157	0.109388
809.292	0.0869565
809.426	0.0778178
809.561	0.0678482
809.695	0.0685406
809.83	0.066879
809.964	0.0661867
810.099	0.0650789
810.233	0.0650789
810.368	0.0652174
810.502	0.0646635
810.637	0.0653559
810.771	0.0649405
810.906	0.0656328
811.04	0.0645251
811.175	0.062725
811.309	0.0616173
811.444	0.0631404
811.578	0.0632789
811.713	0.0625865
811.847	0.0618942
811.982	0.0646635
812.116	0.0635558
812.251	0.064802
812.385	0.0630019
812.519	0.0641097
812.654	0.0636943
812.788	0.0625865
812.923	0.0649405
813.057	0.0620327
813.192	0.0639712
813.326	0.0643866
813.461	0.0621711
813.595	0.0605096
813.73	0.0624481
813.864	0.0614788
813.999	0.0634173
814.133	0.0628635
814.268	0.0618942
814.402	0.0618942
814.537	0.0624481
814.671	0.0614788
814.806	0.0623096
814.94	0.0624481
815.075	0.0634173
815.209	0.0620327
815.344	0.0617557
815.478	0.0620327
815.612	0.0634173
815.747	0.0645251
815.881	0.0628635
816.016	0.0616173
816.15	0.0614788
816.285	0.0600942
816.419	0.060925
816.554	0.062725
816.688	0.0624481
816.823	0.0620327
816.957	0.0635558
817.092	0.0602326
817.226	0.0635558
817.361	0.0607865
817.495	0.0638327
817.63	0.0625865
817.764	0.0618942
817.898	0.0618942
818.033	0.0623096
818.167	0.0639712
818.302	0.0610634
818.436	0.0628635
818.571	0.0607865
818.705	0.062725
818.84	0.0620327
818.974	0.0618942
819.109	0.0639712
819.243	0.0617557
819.378	0.0620327
819.512	0.0620327
819.646	0.0625865
819.781	0.0617557
819.915	0.0600942
820.05	0.0617557
820.184	0.0603711
820.319	0.0617557
820.453	0.0617557
820.588	0.0628635
820.722	0.0605096
820.857	0.0620327
820.991	0.0617557
821.126	0.060648
821.26	0.0613403
821.394	0.0610634
821.529	0.0624481
821.663	0.0650789
821.798	0.0624481
821.932	0.0618942
822.067	0.0610634
822.201	0.0618942
822.336	0.0616173
822.47	0.0599557
822.605	0.0617557
822.739	0.0639712
822.873	0.0617557
823.008	0.062725
823.142	0.0614788
823.277	0.0581556
823.411	0.0612019
823.546	0.0623096
823.68	0.060925
823.815	0.0607865
823.949	0.0605096
824.083	0.060925
824.218	0.0620327
824.352	0.0625865
824.487	0.0639712
824.621	0.0623096
824.756	0.060648
824.89	0.0635558
825.025	0.0621711
825.159	0.0631404
825.293	0.0612019
825.428	0.0618942
825.562	0.0623096
825.697	0.0618942
825.831	0.0623096
825.966	0.0614788
826.1	0.0602326
826.235	0.0607865
826.369	0.0618942
826.503	0.0620327
826.638	0.0625865
826.772	0.060925
826.907	0.0621711
827.041	0.0639712
827.176	0.0605096
827.31	0.0623096
827.445	0.0621711
827.579	0.0631404
827.713	0.0614788
827.848	0.0614788
827.982	0.0624481
828.117	0.0624481
828.251	0.0646635
828.386	0.0610634
828.52	0.0631404
828.654	0.0624481
828.789	0.0595403
828.923	0.0623096
829.058	0.0612019
829.192	0.0623096
829.327	0.060648
829.461	0.0623096
829.596	0.0638327
829.73	0.0600942
829.864	0.0610634
829.999	0.0620327
830.133	0.0624481
830.268	0.0617557
830.402	0.0616173
830.537	0.0612019
830.671	0.0623096
830.805	0.0625865
830.94	0.0616173
831.074	0.0614788
831.209	0.0623096
831.343	0.0617557
831.478	0.0591249
831.612	0.0613403
831.746	0.0621711
831.881	0.0618942
832.015	0.0624481
832.15	0.0620327
832.284	0.060925
832.418	0.0625865
832.553	0.0617557
832.687	0.0602326
832.822	0.0596788
832.956	0.0639712
833.091	0.0612019
833.225	0.0616173
833.359	0.0613403
833.494	0.0643866
833.628	0.0612019
833.763	0.060925
833.897	0.0599557
834.032	0.0634173
834.166	0.0607865
834.3	0.0614788
834.435	0.0594018
834.569	0.062725
834.704	0.0613403
834.838	0.0628635
834.972	0.0624481
835.107	0.0617557
835.241	0.0621711
835.376	0.0638327
835.51	0.0616173
835.645	0.0618942
835.779	0.0602326
835.913	0.060925
836.048	0.0612019
836.182	0.0599557
836.317	0.0616173
836.451	0.0624481
836.585	0.0613403
836.72	0.0630019
836.854	0.0634173
836.989	0.0600942
837.123	0.0600942
837.257	0.0616173
837.392	0.0620327
837.526	0.0613403
837.661	0.0589864
837.795	0.0620327
837.929	0.0603711
838.064	0.0613403
838.198	0.0610634
838.333	0.0607865
838.467	0.0625865
838.602	0.0618942
838.736	0.0634173
838.87	0.0613403
839.005	0.0625865
839.139	0.0628635
839.274	0.0625865
839.408	0.0623096
839.542	0.0603711
839.677	0.0620327
839.811	0.0631404
839.946	0.0617557
840.08	0.0612019
840.214	0.0617557
840.349	0.0613403
840.483	0.0623096
840.618	0.0596788
840.752	0.0616173
840.886	0.0613403
841.021	0.0610634
841.155	0.0624481
841.29	0.0631404
841.424	0.0628635
841.558	0.0624481
841.693	0.0632789
841.827	0.0607865
841.961	0.060925
842.096	0.062725
842.23	0.060925
842.365	0.0638327
842.499	0.0642481
842.633	0.0592634
842.768	0.0624481
842.902	0.0612019
843.037	0.0617557
843.171	0.0616173
843.305	0.0607865
843.44	0.0621711
843.574	0.0635558
843.709	0.0621711
843.843	0.0620327
843.977	0.0628635
844.112	0.0628635
844.246	0.0618942
844.381	0.0613403
844.515	0.062725
844.649	0.060925
844.784	0.0612019
844.918	0.0634173
845.052	0.0607865
845.187	0.060648
845.321	0.0623096
845.456	0.0607865
845.59	0.0598172
845.724	0.0599557
845.859	0.0621711
845.993	0.0603711
846.128	0.0623096
846.262	0.0612019
846.396	0.0628635
846.531	0.0607865
846.665	0.0635558
846.799	0.0616173
846.934	0.0636943
847.068	0.0618942
847.203	0.0613403
847.337	0.0636943
847.471	0.0607865
847.606	0.0616173
847.74	0.0636943
847.874	0.0607865
848.009	0.0610634
848.143	0.0621711
848.278	0.0632789
848.412	0.0595403
848.546	0.0624481
848.681	0.0613403
848.815	0.0607865
848.949	0.0620327
849.084	0.0616173
849.218	0.0620327
849.353	0.0599557
849.487	0.060648
849.621	0.0635558
849.756	0.0602326
849.89	0.0612019
850.024	0.0623096
850.159	0.060648
850.293	0.0620327
850.428	0.0621711
850.562	0.0617557
850.696	0.0618942
850.831	0.0618942
850.965	0.0621711
851.099	0.0614788
851.234	0.0621711
851.368	0.0624481
851.502	0.060925
851.637	0.0618942
851.771	0.0616173
851.906	0.0602326
852.04	0.062725
852.174	0.0607865
852.309	0.060925
852.443	0.0623096
852.577	0.0616173
852.712	0.0618942
852.846	0.0602326
852.98	0.0613403
853.115	0.0621711
853.249	0.0613403
853.384	0.0618942
853.518	0.0595403
853.652	0.0618942
853.787	0.0623096
853.921	0.0612019
854.055	0.060648
854.19	0.0612019
854.324	0.0628635
854.458	0.0605096
854.593	0.0616173
854.727	0.0621711
854.861	0.0614788
854.996	0.0632789
855.13	0.0607865
855.265	0.0625865
855.399	0.0632789
855.533	0.0623096
855.668	0.0612019
855.802	0.0614788
855.936	0.0618942
856.071	0.0610634
856.205	0.0642481
856.339	0.0607865
856.474	0.0631404
856.608	0.0628635
856.742	0.0616173
856.877	0.0621711
857.011	0.060925
857.145	0.0618942
857.28	0.0617557
857.414	0.060925
857.549	0.0613403
857.683	0.060648
857.817	0.0621711
857.952	0.0625865
858.086	0.0614788
858.22	0.0602326
858.355	0.060925
858.489	0.064802
858.623	0.0616173
858.758	0.0624481
858.892	0.0621711
859.026	0.0631404
859.161	0.0612019
859.295	0.0620327
859.429	0.0624481
859.564	0.0628635
859.698	0.0617557
859.832	0.0630019
859.967	0.0630019
860.101	0.0623096
860.235	0.0621711
860.37	0.0636943
860.504	0.058848
860.638	0.0623096
860.773	0.0618942
860.907	0.0614788
861.041	0.0624481
861.176	0.0628635
861.31	0.0638327
861.444	0.0631404
861.579	0.0613403
861.713	0.0645251
861.847	0.0616173
861.982	0.0616173
862.116	0.0607865
862.25	0.0616173
862.385	0.0614788
862.519	0.0621711
862.653	0.0642481
862.788	0.0617557
862.922	0.0612019
863.056	0.0599557
863.191	0.0634173
863.325	0.0625865
863.459	0.0617557
863.594	0.0614788
863.728	0.0617557
863.862	0.060925
863.997	0.0632789
864.131	0.0605096
864.265	0.0624481
864.4	0.0616173
864.534	0.062725
864.668	0.0610634
864.803	0.062725
864.937	0.0614788
865.071	0.0634173
865.206	0.0607865
865.34	0.0623096
865.474	0.0620327
865.609	0.060925
865.743	0.0620327
865.877	0.0631404
866.012	0.0632789
866.146	0.0600942
866.28	0.0613403
866.415	0.0605096
866.549	0.0635558
866.683	0.0602326
866.818	0.0616173
866.952	0.0605096
867.086	0.0613403
867.221	0.0614788
867.355	0.0605096
867.489	0.0624481
867.623	0.0635558
867.758	0.0623096
867.892	0.0610634
868.026	0.0618942
868.161	0.0599557
868.295	0.0616173
868.429	0.0621711
868.564	0.0589864
868.698	0.0617557
868.832	0.0616173
868.967	0.0618942
869.101	0.0620327
869.235	0.0607865
869.37	0.0632789
869.504	0.0628635
869.638	0.060648
869.773	0.0605096
869.907	0.0620327
870.041	0.0617557
870.175	0.0610634
870.31	0.0628635
870.444	0.0623096
870.578	0.0612019
870.713	0.0641097
870.847	0.0614788
870.981	0.0602326
871.116	0.0625865
871.25	0.062725
871.384	0.0612019
871.519	0.0635558
871.653	0.0612019
871.787	0.0607865
871.921	0.0614788
872.056	0.0610634
872.19	0.0623096
872.324	0.0616173
872.459	0.0603711
872.593	0.0620327
872.727	0.0630019
872.862	0.0620327
872.996	0.0623096
873.13	0.0620327
873.264	0.0617557
873.399	0.0613403
873.533	0.0614788
873.667	0.0645251
873.802	0.0618942
873.936	0.062725
874.07	0.0638327
874.205	0.0620327
874.339	0.0618942
874.473	0.0621711
874.607	0.060925
874.742	0.0613403
874.876	0.0616173
875.01	0.0620327
875.145	0.0616173
875.279	0.0612019
875.413	0.0618942
875.548	0.0612019
875.682	0.0634173
875.816	0.0617557
875.95	0.0618942
876.085	0.0607865
876.219	0.0623096
876.353	0.0623096
876.488	0.0624481
876.622	0.0605096
876.756	0.0617557
876.89	0.0630019
877.025	0.0617557
877.159	0.0632789
877.293	0.0610634
877.428	0.0605096
877.562	0.0634173
877.696	0.0596788
877.83	0.0610634
877.965	0.0614788
878.099	0.0616173
878.233	0.0617557
878.368	0.062725
878.502	0.0621711
878.636	0.0610634
878.77	0.058571
878.905	0.0634173
879.039	0.0623096
879.173	0.0617557
879.308	0.0628635
879.442	0.0621711
879.576	0.0612019
879.71	0.0598172
879.845	0.060648
879.979	0.0620327
880.113	0.0614788
880.248	0.0625865
880.382	0.0612019
880.516	0.0621711
880.65	0.0614788
880.785	0.0618942
880.919	0.0617557
881.053	0.0617557
881.188	0.0620327
881.322	0.0621711
881.456	0.0617557
881.59	0.0614788
881.725	0.0607865
881.859	0.0628635
881.993	0.0623096
882.127	0.0623096
882.262	0.0591249
882.396	0.0605096
882.53	0.0639712
882.665	0.0600942
882.799	0.0617557
882.933	0.0620327
883.067	0.060925
883.202	0.0618942
883.336	0.0632789
883.47	0.0621711
883.604	0.0617557
883.739	0.0613403
883.873	0.060648
884.007	0.060925
884.142	0.060648
884.276	0.0625865
884.41	0.0617557
884.544	0.0612019
884.679	0.0610634
884.813	0.0620327
884.947	0.0617557
885.081	0.0610634
885.216	0.0628635
885.35	0.0613403
885.484	0.0635558
885.618	0.0614788
885.753	0.0632789
885.887	0.0618942
886.021	0.0602326
886.155	0.060925
886.29	0.0598172
886.424	0.0625865
886.558	0.0610634
886.693	0.0595403
886.827	0.0616173
886.961	0.0617557
887.095	0.0603711
887.23	0.062725
887.364	0.060925
887.498	0.0605096
887.632	0.0613403
887.767	0.0634173
887.901	0.0613403
888.035	0.060648
888.169	0.060925
888.304	0.0624481
888.438	0.0635558
888.572	0.0624481
888.706	0.0607865
888.841	0.0614788
888.975	0.0592634
889.109	0.0617557
889.243	0.0602326
889.378	0.0620327
889.512	0.0638327
889.646	0.0618942
889.78	0.0614788
889.915	0.0607865
890.049	0.0616173
890.183	0.0617557
890.317	0.0621711
890.452	0.0636943
890.586	0.0600942
890.72	0.0631404
890.854	0.0603711
890.989	0.0613403
891.123	0.0630019
891.257	0.0620327
891.391	0.0599557
891.526	0.0618942
891.66	0.0603711
891.794	0.0602326
891.928	0.062725
892.063	0.0617557
892.197	0.0605096
892.331	0.0636943
892.465	0.0630019
892.6	0.0631404
892.734	0.0616173
892.868	0.0612019
893.002	0.0636943
893.137	0.0632789
893.271	0.0624481
893.405	0.0624481
893.539	0.0631404
893.674	0.0639712
893.808	0.0613403
893.942	0.0612019
894.076	0.0613403
894.21	0.0614788
894.345	0.0612019
894.479	0.0621711
894.613	0.0635558
894.747	0.0617557
894.882	0.0624481
895.016	0.0620327
895.15	0.0635558
895.284	0.0631404
895.419	0.0602326
895.553	0.0630019
895.687	0.0607865
895.821	0.0616173
895.956	0.0642481
896.09	0.0624481
896.224	0.0612019
896.358	0.0610634
896.492	0.0620327
896.627	0.0612019
896.761	0.0621711
896.895	0.0612019
897.029	0.060925
897.164	0.0623096
897.298	0.0614788
897.432	0.0636943
897.566	0.0613403
897.701	0.0617557
897.835	0.0628635
897.969	0.0631404
898.103	0.0614788
898.237	0.0618942
898.372	0.0621711
898.506	0.0595403
898.64	0.0607865
898.774	0.0610634
898.909	0.0612019
899.043	0.0625865
899.177	0.0623096
899.311	0.0636943
899.445	0.060925
899.58	0.0614788
899.714	0.0625865
899.848	0.0624481
899.982	0.0630019
900.117	0.0621711
900.251	0.0605096
900.385	0.060648
900.519	0.0628635
900.653	0.0600942
900.788	0.0623096
900.922	0.0635558
901.056	0.0630019
901.19	0.0631404
901.325	0.0602326
901.459	0.0624481
901.593	0.0613403
901.727	0.0618942
901.861	0.0603711
901.996	0.0617557
902.13	0.0645251
902.264	0.0630019
902.398	0.0610634
902.532	0.064802
902.667	0.0617557
902.801	0.0618942
902.935	0.0610634
903.069	0.0621711
903.204	0.0616173
903.338	0.0631404
903.472	0.0614788
903.606	0.0599557
903.74	0.0607865
903.875	0.0599557
904.009	0.0607865
904.143	0.0616173
904.277	0.0621711
904.411	0.0631404
904.546	0.0607865
904.68	0.0616173
904.814	0.0621711
904.948	0.0613403
905.082	0.0628635
905.217	0.0603711
905.351	0.0620327
905.485	0.0624481
905.619	0.0610634
905.753	0.060925
905.888	0.0610634
906.022	0.0616173
906.156	0.0620327
906.29	0.0603711
906.424	0.0623096
906.559	0.0613403
906.693	0.0628635
906.827	0.0623096
906.961	0.0623096
907.095	0.060648
907.23	0.0617557
907.364	0.0616173
907.498	0.0600942
907.632	0.0631404
907.766	0.0618942
907.901	0.0614788
908.035	0.0618942
908.169	0.0600942
908.303	0.0600942
908.437	0.0630019
908.572	0.0596788
908.706	0.060925
908.84	0.0612019
908.974	0.0620327
909.108	0.060925
909.243	0.0639712
909.377	0.0618942
909.511	0.062725
909.645	0.0612019
909.779	0.0628635
909.914	0.0624481
910.048	0.0630019
910.182	0.0617557
910.316	0.0634173
910.45	0.0631404
910.585	0.0628635
910.719	0.0631404
910.853	0.0602326
910.987	0.0616173
911.121	0.0610634
911.255	0.0616173
911.39	0.0616173
911.524	0.0621711
911.658	0.0634173
911.792	0.0610634
911.926	0.0616173
912.061	0.0645251
912.195	0.0617557
912.329	0.0610634
912.463	0.0613403
912.597	0.0620327
912.732	0.0618942
912.866	0.0628635
913	0.0628635
913.134	0.0603711
913.268	0.0617557
913.402	0.0614788
913.537	0.0616173
913.671	0.0613403
913.805	0.0618942
913.939	0.0635558
914.073	0.0628635
914.208	0.0616173
914.342	0.0620327
914.476	0.0603711
914.61	0.0616173
914.744	0.0623096
914.878	0.062725
915.013	0.0621711
915.147	0.0602326
915.281	0.0616173
915.415	0.0618942
915.549	0.0605096
915.683	0.0635558
915.818	0.062725
915.952	0.0628635
916.086	0.060648
916.22	0.0616173
916.354	0.0616173
916.488	0.0624481
916.623	0.0618942
916.757	0.0618942
916.891	0.0621711
917.025	0.0624481
917.159	0.0618942
917.293	0.0610634
917.428	0.0630019
917.562	0.0620327
917.696	0.0603711
917.83	0.062725
917.964	0.0620327
918.098	0.0618942
918.233	0.0613403
918.367	0.0618942
918.501	0.0632789
918.635	0.0616173
918.769	0.0628635
918.903	0.0612019
919.038	0.060648
919.172	0.062725
919.306	0.0614788
919.44	0.0631404
919.574	0.0631404
919.708	0.0612019
919.843	0.0613403
919.977	0.0614788
920.111	0.0603711
920.245	0.0605096
920.379	0.0613403
920.513	0.0616173
920.648	0.060925
920.782	0.0632789
920.916	0.0617557
921.05	0.0616173
921.184	0.0607865
921.318	0.0625865
921.453	0.0630019
921.587	0.0610634
921.721	0.0630019
921.855	0.060648
921.989	0.0607865
922.123	0.0618942
922.257	0.0617557
922.392	0.0605096
922.526	0.0602326
922.66	0.0607865
922.794	0.0623096
922.928	0.0607865
923.062	0.0613403
923.197	0.0616173
923.331	0.0613403
923.465	0.0612019
923.599	0.0605096
923.733	0.0616173
923.867	0.0617557
924.001	0.0617557
924.136	0.060925
924.27	0.062725
924.404	0.0635558
924.538	0.0649405
924.672	0.060925
924.806	0.0623096
924.94	0.0625865
925.075	0.060648
925.209	0.0616173
925.343	0.062725
925.477	0.0595403
925.611	0.0603711
925.745	0.0617557
925.879	0.062725
926.014	0.0614788
926.148	0.0645251
926.282	0.0634173
926.416	0.0620327
926.55	0.0616173
926.684	0.0596788
926.818	0.062725
926.953	0.0618942
927.087	0.0620327
927.221	0.0630019
927.355	0.0634173
927.489	0.0630019
927.623	0.0621711
927.757	0.0614788
927.892	0.0621711
928.026	0.0599557
928.16	0.0618942
928.294	0.0631404
928.428	0.0605096
928.562	0.0602326
928.696	0.0599557
928.831	0.062725
928.965	0.0618942
929.099	0.0620327
929.233	0.0613403
929.367	0.0620327
929.501	0.0624481
929.635	0.0634173
929.769	0.0614788
929.904	0.0598172
930.038	0.0605096
930.172	0.0607865
930.306	0.0600942
930.44	0.0623096
930.574	0.062725
930.708	0.0632789
930.843	0.060648
930.977	0.0614788
931.111	0.0614788
931.245	0.0641097
931.379	0.0605096
931.513	0.060648
931.647	0.0602326
931.781	0.0634173
931.916	0.0618942
932.05	0.0607865
932.184	0.0620327
932.318	0.062725
932.452	0.0610634
932.586	0.0614788
932.72	0.0603711
932.854	0.0620327
932.989	0.0616173
933.123	0.0638327
933.257	0.0616173
933.391	0.0616173
933.525	0.062725
933.659	0.0631404
933.793	0.062725
933.927	0.0620327
934.061	0.0612019
934.196	0.060925
934.33	0.0600942
934.464	0.0628635
934.598	0.062725
934.732	0.0616173
934.866	0.0612019
935	0.0630019
935.134	0.0618942
935.269	0.0617557
935.403	0.0621711
935.537	0.0621711
935.671	0.0614788
935.805	0.0636943
935.939	0.060648
936.073	0.0618942
936.207	0.0595403
936.341	0.0603711
936.476	0.060925
936.61	0.0610634
936.744	0.0630019
936.878	0.0614788
937.012	0.0641097
937.146	0.062725
937.28	0.0614788
937.414	0.0614788
937.548	0.0621711
937.683	0.062725
937.817	0.0616173
937.951	0.060925
938.085	0.062725
938.219	0.0614788
938.353	0.0617557
938.487	0.0620327
938.621	0.0605096
938.755	0.0618942
938.889	0.0628635
939.024	0.0634173
939.158	0.062725
939.292	0.0617557
939.426	0.0625865
939.56	0.0623096
939.694	0.0616173
939.828	0.0614788
939.962	0.0620327
940.096	0.0614788
940.231	0.0616173
940.365	0.0632789
940.499	0.0634173
940.633	0.0603711
940.767	0.0616173
940.901	0.0630019
941.035	0.060925
941.169	0.0614788
941.303	0.0610634
941.437	0.0614788
941.571	0.0618942
941.706	0.0624481
941.84	0.0618942
941.974	0.0612019
942.108	0.0610634
942.242	0.0616173
942.376	0.0605096
942.51	0.0616173
942.644	0.0602326
942.778	0.0645251
942.912	0.0628635
943.047	0.0635558
943.181	0.0610634
943.315	0.0621711
943.449	0.0617557
943.583	0.0635558
943.717	0.0614788
943.851	0.0612019
943.985	0.0614788
944.119	0.0591249
944.253	0.0600942
944.387	0.0632789
944.522	0.060648
944.656	0.0634173
944.79	0.0600942
944.924	0.0621711
945.058	0.0607865
945.192	0.0621711
945.326	0.0618942
945.46	0.0613403
945.594	0.0612019
945.728	0.0613403
945.862	0.0620327
945.996	0.0603711
946.131	0.0621711
946.265	0.0636943
946.399	0.0610634
946.533	0.0616173
946.667	0.0620327
946.801	0.0632789
946.935	0.0632789
947.069	0.0613403
947.203	0.0618942
947.337	0.0635558
947.471	0.0600942
947.605	0.0618942
947.739	0.0600942
947.874	0.0610634
948.008	0.0612019
948.142	0.0623096
948.276	0.0634173
948.41	0.0636943
948.544	0.0607865
948.678	0.0638327
948.812	0.0620327
948.946	0.0632789
949.08	0.0625865
949.214	0.0620327
949.348	0.0634173
949.482	0.0617557
949.617	0.0616173
949.751	0.0620327
949.885	0.0616173
950.019	0.0602326
950.153	0.060925
950.287	0.062725
950.421	0.0623096
950.555	0.062725
950.689	0.0617557
950.823	0.0603711
950.957	0.0625865
951.091	0.0623096
951.225	0.0607865
951.359	0.0612019
951.493	0.0623096
951.628	0.0623096
951.762	0.0630019
951.896	0.0646635
952.03	0.0620327
952.164	0.0612019
952.298	0.0641097
952.432	0.0617557
952.566	0.0618942
952.7	0.0616173
952.834	0.0620327
952.968	0.0628635
953.102	0.0624481
953.236	0.0600942
953.37	0.0635558
953.504	0.0621711
953.639	0.0616173
953.773	0.0618942
953.907	0.0617557
954.041	0.0613403
954.175	0.0600942
954.309	0.0594018
954.443	0.0623096
954.577	0.060648
954.711	0.0618942
954.845	0.0616173
954.979	0.0614788
955.113	0.0630019
955.247	0.060648
955.381	0.0620327
955.515	0.0602326
955.649	0.0632789
955.783	0.0610634
955.917	0.0618942
956.052	0.0599557
956.186	0.0596788
956.32	0.062725
956.454	0.0596788
956.588	0.0632789
956.722	0.0623096
956.856	0.0616173
956.99	0.0628635
957.124	0.0617557
957.258	0.0628635
957.392	0.062725
957.526	0.0625865
957.66	0.0613403
957.794	0.0623096
957.928	0.062725
958.062	0.0621711
958.196	0.0612019
958.33	0.0638327
958.464	0.0610634
958.598	0.0605096
958.733	0.0614788
958.867	0.0613403
959.001	0.0621711
959.135	0.0614788
959.269	0.0595403
959.403	0.0602326
959.537	0.0624481
959.671	0.0620327
959.805	0.0623096
959.939	0.0624481
960.073	0.0605096
960.207	0.0610634
960.341	0.0607865
960.475	0.0635558
960.609	0.0635558
960.743	0.060925
960.877	0.0620327
961.011	0.062725
961.145	0.0624481
961.279	0.0625865
961.413	0.0624481
961.547	0.0618942
961.681	0.060925
961.815	0.0621711
961.949	0.0628635
962.083	0.0607865
962.218	0.0589864
962.352	0.0614788
962.486	0.0602326
962.62	0.0632789
962.754	0.060925
962.888	0.0616173
963.022	0.0616173
963.156	0.0598172
963.29	0.0612019
963.424	0.0602326
963.558	0.062725
963.692	0.060925
963.826	0.0623096
963.96	0.0621711
964.094	0.0616173
964.228	0.0613403
964.362	0.0631404
964.496	0.0613403
964.63	0.0607865
964.764	0.0618942
964.898	0.0614788
965.032	0.0602326
965.166	0.0595403
965.3	0.0617557
965.434	0.0605096
965.568	0.0613403
965.702	0.0617557
965.836	0.0607865
965.97	0.0624481
966.104	0.0632789
966.238	0.0621711
966.372	0.0610634
966.506	0.0620327
966.64	0.0614788
966.774	0.0620327
966.908	0.060925
967.043	0.0612019
967.177	0.0620327
967.311	0.0610634
967.445	0.0613403
967.579	0.0603711
967.713	0.0628635
967.847	0.0625865
967.981	0.0625865
968.115	0.062725
968.249	0.0623096
968.383	0.0621711
968.517	0.0602326
968.651	0.0595403
968.785	0.0592634
968.919	0.0634173
969.053	0.0620327
969.187	0.0628635
969.321	0.0624481
969.455	0.0625865
969.589	0.0607865
969.723	0.0631404
969.857	0.060925
969.991	0.0620327
970.125	0.0605096
970.259	0.0621711
970.393	0.0636943
970.527	0.0624481
970.661	0.0610634
970.795	0.0592634
970.929	0.0632789
971.063	0.062725
971.197	0.0628635
971.331	0.0618942
971.465	0.0620327
971.599	0.0623096
971.733	0.0639712
971.867	0.0602326
972.001	0.0603711
972.135	0.062725
972.269	0.0625865
972.403	0.0600942
972.537	0.0603711
972.671	0.0623096
972.805	0.0628635
972.939	0.062725
973.073	0.0618942
973.207	0.0617557
973.341	0.0617557
973.475	0.0616173
973.609	0.0623096
973.743	0.060925
973.877	0.0617557
974.011	0.060648
974.145	0.0614788
974.279	0.0639712
974.413	0.0618942
974.547	0.0623096
974.681	0.0620327
974.815	0.0614788
974.949	0.0613403
975.083	0.0625865
975.217	0.0595403
975.351	0.0599557
975.485	0.0612019
975.619	0.0616173
975.753	0.0616173
975.887	0.0614788
976.021	0.0613403
976.155	0.0624481
976.289	0.0614788
976.423	0.0635558
976.557	0.0634173
976.691	0.0616173
976.825	0.0623096
976.959	0.0620327
977.093	0.0642481
977.227	0.0607865
977.361	0.060925
977.495	0.058848
977.629	0.0598172
977.763	0.0599557
977.897	0.0630019
978.031	0.0621711
978.165	0.0605096
978.299	0.0641097
978.433	0.0643866
978.567	0.0625865
978.701	0.0600942
978.835	0.0621711
978.969	0.0603711
979.103	0.0625865
979.237	0.0618942
979.371	0.0607865
979.505	0.0610634
979.639	0.0610634
979.773	0.0624481
979.907	0.0610634
980.041	0.0617557
980.175	0.0613403
980.308	0.0616173
980.442	0.0624481
980.576	0.060648
980.71	0.0610634
980.844	0.060648
980.978	0.0617557
981.112	0.0587095
981.246	0.0612019
981.38	0.0599557
981.514	0.0605096
981.648	0.060925
981.782	0.0612019
981.916	0.062725
982.05	0.0610634
982.184	0.0621711
982.318	0.060648
982.452	0.0624481
982.586	0.0625865
982.72	0.062725
982.854	0.0612019
982.988	0.0645251
983.122	0.0600942
983.256	0.0631404
983.39	0.0620327
983.524	0.0631404
983.658	0.062725
983.792	0.0605096
983.926	0.062725
984.06	0.0616173
984.194	0.0621711
984.328	0.0614788
984.462	0.0624481
984.596	0.0631404
984.73	0.060648
984.864	0.0610634
984.998	0.0612019
985.132	0.0628635
985.265	0.0617557
985.399	0.0623096
985.533	0.0602326
985.667	0.0616173
985.801	0.0613403
985.935	0.0620327
986.069	0.0616173
986.203	0.0624481
986.337	0.0621711
986.471	0.060648
986.605	0.0602326
986.739	0.0612019
986.873	0.0613403
987.007	0.0639712
987.141	0.0614788
987.275	0.0602326
987.409	0.0603711
987.543	0.0621711
987.677	0.062725
987.811	0.0616173
987.945	0.0623096
988.079	0.0625865
988.213	0.0610634
988.347	0.0623096
988.481	0.0621711
988.614	0.0616173
988.748	0.0618942
988.882	0.0624481
989.016	0.0628635
989.15	0.0628635
989.284	0.0617557
989.418	0.0624481
989.552	0.0612019
989.686	0.0628635
989.82	0.0621711
989.954	0.0618942
990.088	0.0624481
990.222	0.0621711
990.356	0.0623096
990.49	0.0625865
990.624	0.0621711
990.758	0.0617557
990.892	0.0630019
991.026	0.0603711
991.16	0.0617557
991.294	0.0630019
991.427	0.060648
991.561	0.0624481
991.695	0.0614788
991.829	0.0616173
991.963	0.0617557
992.097	0.0596788
992.231	0.0607865
992.365	0.0630019
992.499	0.0613403
992.633	0.0599557
992.767	0.0603711
992.901	0.0624481
993.035	0.0616173
993.169	0.0617557
993.303	0.0632789
993.437	0.0635558
993.571	0.0610634
993.704	0.0614788
993.838	0.0632789
993.972	0.062725
994.106	0.0623096
994.24	0.0610634
994.374	0.0618942
994.508	0.0602326
994.642	0.0605096
994.776	0.0603711
994.91	0.0617557
995.044	0.0612019
995.178	0.062725
995.312	0.0625865
995.446	0.0610634
995.58	0.0607865
995.714	0.0603711
995.847	0.0632789
995.981	0.0625865
996.115	0.0612019
996.249	0.0624481
996.383	0.0618942
996.517	0.0613403
996.651	0.0616173
996.785	0.0610634
996.919	0.0594018
997.053	0.0625865
997.187	0.0623096
997.321	0.060648
997.455	0.0617557
997.589	0.0614788
997.722	0.0616173
997.856	0.0602326
997.99	0.064802
998.124	0.0607865
998.258	0.0617557
998.392	0.0617557
998.526	0.062725
998.66	0.0620327
998.794	0.0602326
998.928	0.0646635
999.062	0.0625865
999.196	0.0625865
999.33	0.0607865
999.464	0.0612019
999.597	0.0612019
999.731	0.0600942
999.865	0.0635558
999.999	0.0641097
1000.13	0.0623096
1000.27	0.0639712
1000.4	0.0628635
1000.53	0.062725
1000.67	0.0596788
1000.8	0.0625865
1000.94	0.0654943
1001.07	0.0618942
1001.2	0.060648
1001.34	0.0607865
1001.47	0.0614788
1001.61	0.0628635
1001.74	0.0624481
1001.87	0.0614788
1002.01	0.0616173
1002.14	0.0598172
1002.28	0.0607865
1002.41	0.0598172
1002.54	0.0646635
1002.68	0.0607865
1002.81	0.0617557
1002.95	0.0618942
1003.08	0.0607865
1003.21	0.0617557
1003.35	0.0616173
1003.48	0.0600942
1003.61	0.0613403
1003.75	0.0614788
1003.88	0.0613403
1004.02	0.0618942
1004.15	0.0624481
1004.28	0.0607865
1004.42	0.0617557
1004.55	0.0628635
1004.69	0.0602326
1004.82	0.0635558
1004.95	0.0600942
1005.09	0.0624481
1005.22	0.0628635
1005.36	0.060925
1005.49	0.0614788
1005.62	0.0612019
1005.76	0.0616173
1005.89	0.0610634
1006.03	0.0616173
1006.16	0.0620327
1006.29	0.0607865
1006.43	0.0634173
1006.56	0.0623096
1006.69	0.0635558
1006.83	0.060648
1006.96	0.0630019
1007.1	0.0632789
1007.23	0.0620327
1007.36	0.0621711
1007.5	0.0630019
1007.63	0.0607865
1007.77	0.0612019
1007.9	0.0642481
1008.03	0.0602326
1008.17	0.0631404
1008.3	0.0599557
1008.44	0.0646635
1008.57	0.0616173
1008.7	0.0617557
1008.84	0.0602326
1008.97	0.0628635
1009.1	0.0616173
1009.24	0.0613403
1009.37	0.062725
1009.51	0.0613403
1009.64	0.0614788
1009.77	0.0621711
1009.91	0.0636943
1010.04	0.0616173
1010.18	0.0612019
1010.31	0.0623096
1010.44	0.0624481
1010.58	0.0617557
1010.71	0.0607865
1010.85	0.0641097
1010.98	0.0603711
1011.11	0.0621711
1011.25	0.0618942
1011.38	0.0599557
1011.51	0.0599557
1011.65	0.0614788
1011.78	0.0641097
1011.92	0.0617557
1012.05	0.0618942
1012.18	0.0624481
1012.32	0.0602326
1012.45	0.0599557
1012.59	0.0621711
1012.72	0.0625865
1012.85	0.0623096
1012.99	0.062725
1013.12	0.0614788
1013.26	0.0613403
1013.39	0.0616173
1013.52	0.0616173
1013.66	0.0610634
1013.79	0.0614788
1013.92	0.0630019
1014.06	0.0628635
1014.19	0.0617557
1014.33	0.060925
1014.46	0.0600942
1014.59	0.0621711
1014.73	0.0613403
1014.86	0.0618942
1015	0.0617557
1015.13	0.0610634
1015.26	0.0614788
1015.4	0.0625865
1015.53	0.0612019
1015.67	0.0617557
1015.8	0.0610634
1015.93	0.0617557
1016.07	0.060648
1016.2	0.0616173
1016.33	0.0631404
1016.47	0.0630019
1016.6	0.0603711
1016.74	0.0624481
1016.87	0.0634173
1017	0.0632789
1017.14	0.0621711
1017.27	0.0623096
1017.41	0.0603711
1017.54	0.0616173
1017.67	0.0605096
1017.81	0.062725
1017.94	0.0610634
1018.07	0.0617557
1018.21	0.0620327
1018.34	0.0649405
1018.48	0.0624481
1018.61	0.0614788
1018.74	0.0618942
1018.88	0.0616173
1019.01	0.0616173
1019.15	0.0636943
1019.28	0.0613403
1019.41	0.0617557
1019.55	0.0618942
1019.68	0.0624481
1019.82	0.0623096
1019.95	0.0621711
1020.08	0.0618942
1020.22	0.0632789
1020.35	0.0639712
1020.48	0.0616173
1020.62	0.062725
1020.75	0.0623096
1020.89	0.0623096
1021.02	0.0624481
1021.15	0.0610634
1021.29	0.060925
1021.42	0.0621711
1021.56	0.0599557
1021.69	0.0628635
1021.82	0.0621711
1021.96	0.0616173
1022.09	0.0630019
1022.22	0.0617557
1022.36	0.0618942
1022.49	0.060648
1022.63	0.062725
1022.76	0.060648
1022.89	0.0635558
1023.03	0.0623096
1023.16	0.0610634
1023.3	0.0610634
1023.43	0.0607865
1023.56	0.0592634
1023.7	0.0618942
1023.83	0.0624481
1023.96	0.0616173
1024.1	0.0630019
1024.23	0.062725
1024.37	0.0624481
1024.5	0.0625865
1024.63	0.0610634
1024.77	0.0624481
1024.9	0.0600942
1025.04	0.0610634
1025.17	0.0623096
1025.3	0.0617557
1025.44	0.0607865
1025.57	0.0624481
1025.7	0.0617557
1025.84	0.060925
1025.97	0.0613403
1026.11	0.0628635
1026.24	0.0618942
1026.37	0.0605096
1026.51	0.0594018
1026.64	0.0621711
1026.78	0.0634173
1026.91	0.0605096
1027.04	0.0624481
1027.18	0.0612019
1027.31	0.0625865
1027.44	0.0634173
1027.58	0.060648
1027.71	0.0624481
1027.85	0.0605096
1027.98	0.0600942
1028.11	0.0599557
1028.25	0.0631404
1028.38	0.0618942
1028.52	0.0610634
1028.65	0.0614788
1028.78	0.0616173
1028.92	0.0607865
1029.05	0.0599557
1029.18	0.0616173
1029.32	0.0613403
1029.45	0.0628635
1029.59	0.0613403
1029.72	0.0631404
1029.85	0.0617557
1029.99	0.0625865
1030.12	0.0632789
1030.26	0.0607865
1030.39	0.0598172
1030.52	0.0603711
1030.66	0.0618942
1030.79	0.0618942
1030.92	0.0617557
1031.06	0.0634173
1031.19	0.0592634
1031.33	0.0602326
1031.46	0.0620327
1031.59	0.0620327
1031.73	0.0610634
1031.86	0.0635558
1031.99	0.0610634
1032.13	0.0621711
1032.26	0.062725
1032.4	0.0618942
1032.53	0.0628635
1032.66	0.0624481
1032.8	0.060648
1032.93	0.0617557
1033.07	0.060648
1033.2	0.0617557
1033.33	0.0618942
1033.47	0.0599557
1033.6	0.0602326
1033.73	0.0635558
1033.87	0.062725
1034	0.062725
1034.14	0.0616173
1034.27	0.0614788
1034.4	0.0617557
1034.54	0.0631404
1034.67	0.0617557
1034.81	0.0617557
1034.94	0.0617557
1035.07	0.0610634
1035.21	0.0624481
1035.34	0.0607865
1035.47	0.0624481
1035.61	0.0638327
1035.74	0.0628635
1035.88	0.0607865
1036.01	0.0624481
1036.14	0.0623096
1036.28	0.0620327
1036.41	0.0603711
1036.54	0.0635558
1036.68	0.0632789
1036.81	0.0639712
1036.95	0.0614788
1037.08	0.0614788
1037.21	0.0628635
1037.35	0.0614788
1037.48	0.0620327
1037.62	0.060925
1037.75	0.0598172
1037.88	0.060925
1038.02	0.0620327
1038.15	0.0600942
1038.28	0.0598172
1038.42	0.060925
1038.55	0.0631404
1038.69	0.0610634
1038.82	0.060648
1038.95	0.060925
1039.09	0.0613403
1039.22	0.0639712
1039.35	0.0617557
1039.49	0.060648
1039.62	0.0610634
1039.76	0.0634173
1039.89	0.0630019
1040.02	0.0600942
1040.16	0.0623096
1040.29	0.062725
1040.43	0.0618942
1040.56	0.0643866
1040.69	0.0620327
1040.83	0.0603711
1040.96	0.0625865
1041.09	0.0614788
1041.23	0.0628635
1041.36	0.060925
1041.5	0.0623096
1041.63	0.060648
1041.76	0.0595403
1041.9	0.0616173
1042.03	0.0625865
1042.16	0.0616173
1042.3	0.0625865
1042.43	0.0617557
1042.57	0.0621711
1042.7	0.060925
1042.83	0.0614788
1042.97	0.0628635
1043.1	0.0620327
1043.23	0.0620327
1043.37	0.0642481
1043.5	0.0625865
1043.64	0.0613403
1043.77	0.0630019
1043.9	0.0607865
1044.04	0.0613403
1044.17	0.0623096
1044.31	0.0630019
1044.44	0.062725
1044.57	0.0617557
1044.71	0.0630019
1044.84	0.0620327
1044.97	0.0621711
1045.11	0.0613403
1045.24	0.0613403
1045.38	0.0600942
1045.51	0.0621711
1045.64	0.0614788
1045.78	0.0621711
1045.91	0.0613403
1046.04	0.0612019
1046.18	0.0617557
1046.31	0.0595403
1046.45	0.0631404
1046.58	0.0628635
1046.71	0.0603711
1046.85	0.0630019
1046.98	0.0620327
1047.11	0.0617557
1047.25	0.0618942
1047.38	0.0617557
1047.52	0.0602326
1047.65	0.0607865
1047.78	0.0623096
1047.92	0.0610634
1048.05	0.0605096
1048.18	0.0607865
1048.32	0.0618942
1048.45	0.0635558
1048.59	0.0620327
1048.72	0.0618942
1048.85	0.0620327
1048.99	0.0607865
1049.12	0.0635558
1049.25	0.060648
1049.39	0.0616173
1049.52	0.0634173
1049.66	0.0617557
1049.79	0.0613403
1049.92	0.0634173
1050.06	0.060925
1050.19	0.0621711
1050.33	0.0595403
1050.46	0.0630019
1050.59	0.0599557
1050.73	0.0641097
1050.86	0.0617557
1050.99	0.0613403
1051.13	0.0634173
1051.26	0.0634173
1051.4	0.0620327
1051.53	0.062725
1051.66	0.0596788
1051.8	0.0617557
1051.93	0.0628635
1052.06	0.0630019
1052.2	0.0614788
1052.33	0.0623096
1052.47	0.0625865
1052.6	0.0614788
1052.73	0.0607865
1052.87	0.0621711
1053	0.060925
1053.13	0.0628635
1053.27	0.0614788
1053.4	0.0634173
1053.54	0.0623096
1053.67	0.060648
1053.8	0.0624481
1053.94	0.062725
1054.07	0.0602326
1054.2	0.0624481
1054.34	0.0621711
1054.47	0.0612019
1054.61	0.060648
1054.74	0.0624481
1054.87	0.0599557
1055.01	0.0624481
1055.14	0.060648
1055.27	0.0624481
1055.41	0.0600942
1055.54	0.062725
1055.68	0.0641097
1055.81	0.0631404
1055.94	0.0603711
1056.08	0.0638327
1056.21	0.0598172
1056.34	0.0613403
1056.48	0.0638327
1056.61	0.0638327
1056.75	0.0612019
1056.88	0.0621711
1057.01	0.0594018
1057.15	0.0618942
1057.28	0.060925
1057.41	0.0607865
1057.55	0.0600942
1057.68	0.0625865
1057.82	0.0607865
1057.95	0.0620327
1058.08	0.0632789
1058.22	0.0620327
1058.35	0.0614788
1058.48	0.0620327
1058.62	0.0620327
1058.75	0.060925
1058.89	0.0628635
1059.02	0.0620327
1059.15	0.0620327
1059.29	0.0620327
1059.42	0.0617557
1059.55	0.0617557
1059.69	0.0614788
1059.82	0.0623096
1059.96	0.0618942
1060.09	0.0631404
1060.22	0.0612019
1060.36	0.0610634
1060.49	0.0628635
1060.62	0.0607865
1060.76	0.0605096
1060.89	0.0617557
1061.03	0.0616173
1061.16	0.0612019
1061.29	0.0628635
1061.43	0.0624481
1061.56	0.0595403
1061.69	0.0614788
1061.83	0.0630019
1061.96	0.0613403
1062.1	0.0610634
1062.23	0.0620327
1062.36	0.060648
1062.5	0.0616173
1062.63	0.0612019
1062.76	0.0614788
1062.9	0.0623096
1063.03	0.0623096
1063.17	0.0618942
1063.3	0.0617557
1063.43	0.060648
1063.57	0.060648
1063.7	0.0602326
1063.83	0.0631404
1063.97	0.0643866
1064.1	0.0618942
1064.23	0.0618942
1064.37	0.0600942
1064.5	0.0628635
1064.64	0.0632789
1064.77	0.0616173
1064.9	0.0625865
1065.04	0.0623096
1065.17	0.0620327
1065.3	0.0613403
1065.44	0.0624481
1065.57	0.0612019
1065.71	0.0616173
1065.84	0.062725
1065.97	0.0616173
1066.11	0.0631404
1066.24	0.0624481
1066.37	0.0617557
1066.51	0.0630019
1066.64	0.0624481
1066.78	0.0623096
1066.91	0.0616173
1067.04	0.0650789
1067.18	0.0617557
1067.31	0.0614788
1067.44	0.0594018
1067.58	0.0605096
1067.71	0.0628635
1067.85	0.0616173
1067.98	0.0613403
1068.11	0.0635558
1068.25	0.0641097
1068.38	0.0625865
1068.51	0.0603711
1068.65	0.0628635
1068.78	0.060925
1068.92	0.0614788
1069.05	0.0631404
1069.18	0.0620327
1069.32	0.0632789
1069.45	0.0628635
1069.58	0.0613403
1069.72	0.0617557
1069.85	0.0634173
1069.98	0.060925
1070.12	0.0630019
1070.25	0.0625865
1070.39	0.0603711
1070.52	0.060648
1070.65	0.0610634
1070.79	0.0625865
1070.92	0.0630019
1071.05	0.0631404
1071.19	0.0600942
1071.32	0.0612019
1071.46	0.0623096
1071.59	0.0635558
1071.72	0.062725
1071.86	0.0635558
1071.99	0.058571
1072.12	0.0634173
1072.26	0.0623096
1072.39	0.0630019
1072.53	0.0630019
1072.66	0.0605096
1072.79	0.0603711
1072.93	0.0617557
1073.06	0.0613403
1073.19	0.0602326
1073.33	0.0630019
1073.46	0.0613403
1073.59	0.0602326
1073.73	0.0613403
1073.86	0.0605096
1074	0.0617557
1074.13	0.0618942
1074.26	0.0620327
1074.4	0.0603711
1074.53	0.0612019
1074.66	0.0602326
1074.8	0.060925
1074.93	0.0624481
1075.07	0.0612019
1075.2	0.0625865
1075.33	0.0623096
1075.47	0.0610634
1075.6	0.0642481
1075.73	0.0600942
1075.87	0.0621711
1076	0.0623096
1076.14	0.0620327
1076.27	0.060648
1076.4	0.062725
1076.54	0.0634173
1076.67	0.0625865
1076.8	0.0625865
1076.94	0.0616173
1077.07	0.0621711
1077.2	0.0617557
1077.34	0.0596788
1077.47	0.0617557
1077.61	0.0625865
1077.74	0.0610634
1077.87	0.0613403
1078.01	0.060925
1078.14	0.0598172
1078.27	0.0620327
1078.41	0.0620327
1078.54	0.0612019
1078.68	0.0595403
1078.81	0.0638327
1078.94	0.0617557
1079.08	0.0623096
1079.21	0.0592634
1079.34	0.0603711
1079.48	0.0634173
1079.61	0.0617557
1079.74	0.0618942
1079.88	0.060925
1080.01	0.0618942
1080.15	0.0623096
1080.28	0.0610634
1080.41	0.0616173
1080.55	0.0636943
1080.68	0.0594018
1080.81	0.0628635
1080.95	0.0641097
1081.08	0.060648
1081.22	0.0634173
1081.35	0.0630019
1081.48	0.0614788
1081.62	0.0631404
1081.75	0.0625865
1081.88	0.0618942
1082.02	0.060648
1082.15	0.0612019
1082.28	0.0594018
1082.42	0.060925
1082.55	0.062725
1082.69	0.0616173
1082.82	0.0624481
1082.95	0.0631404
1083.09	0.0617557
1083.22	0.0618942
1083.35	0.0616173
1083.49	0.0613403
1083.62	0.0623096
1083.75	0.0639712
1083.89	0.0613403
1084.02	0.0605096
1084.16	0.0624481
1084.29	0.0618942
1084.42	0.0616173
1084.56	0.0624481
1084.69	0.0624481
1084.82	0.0616173
1084.96	0.0618942
1085.09	0.0618942
1085.23	0.062725
1085.36	0.0612019
1085.49	0.0616173
1085.63	0.0603711
1085.76	0.0618942
1085.89	0.0603711
1086.03	0.0614788
1086.16	0.0591249
1086.29	0.0618942
1086.43	0.0631404
1086.56	0.0620327
1086.7	0.0616173
1086.83	0.0625865
1086.96	0.0623096
1087.1	0.0618942
1087.23	0.0610634
1087.36	0.0628635
1087.5	0.060925
1087.63	0.0628635
1087.76	0.0605096
1087.9	0.0623096
1088.03	0.0618942
1088.17	0.0613403
1088.3	0.0598172
1088.43	0.0634173
1088.57	0.060925
1088.7	0.0612019
1088.83	0.0613403
1088.97	0.0613403
1089.1	0.0631404
1089.24	0.0638327
1089.37	0.0625865
1089.5	0.0616173
1089.64	0.0628635
1089.77	0.0596788
1089.9	0.0628635
1090.04	0.0631404
1090.17	0.0610634
1090.3	0.0628635
1090.44	0.0624481
1090.57	0.0628635
1090.71	0.0610634
1090.84	0.060648
1090.97	0.0620327
1091.11	0.0620327
1091.24	0.0631404
1091.37	0.0614788
1091.51	0.0613403
1091.64	0.062725
1091.77	0.0636943
1091.91	0.0621711
1092.04	0.0631404
1092.18	0.0607865
1092.31	0.0602326
1092.44	0.0628635
1092.58	0.0635558
1092.71	0.0624481
1092.84	0.0616173
1092.98	0.0617557
1093.11	0.0617557
1093.24	0.0600942
1093.38	0.0612019
1093.51	0.0620327
1093.65	0.0634173
1093.78	0.0610634
1093.91	0.0613403
1094.05	0.0623096
1094.18	0.0614788
1094.31	0.060925
1094.45	0.0613403
1094.58	0.0634173
1094.71	0.0596788
1094.85	0.0635558
1094.98	0.0610634
1095.12	0.0631404
1095.25	0.060925
1095.38	0.0620327
1095.52	0.0610634
1095.65	0.0618942
1095.78	0.0616173
1095.92	0.0620327
1096.05	0.060925
1096.18	0.0621711
1096.32	0.0623096
1096.45	0.0625865
1096.59	0.0605096
1096.72	0.060648
1096.85	0.0618942
1096.99	0.0610634
1097.12	0.0617557
1097.25	0.0599557
1097.39	0.0632789
1097.52	0.060648
1097.65	0.0621711
1097.79	0.0636943
1097.92	0.0616173
1098.06	0.0613403
1098.19	0.0620327
1098.32	0.0607865
1098.46	0.0595403
1098.59	0.0617557
1098.72	0.0620327
1098.86	0.060648
1098.99	0.0632789
1099.12	0.0620327
1099.26	0.0607865
1099.39	0.0620327
1099.53	0.0612019
1099.66	0.0607865
1099.79	0.0623096
1099.93	0.0624481
1100.06	0.0642481
1100.19	0.0630019
1100.33	0.0624481
1100.46	0.060925
1100.59	0.0631404
1100.73	0.0603711
1100.86	0.0617557
1100.99	0.0625865
1101.13	0.0602326
1101.26	0.0613403
1101.4	0.0623096
1101.53	0.0645251
1101.66	0.0612019
1101.8	0.0635558
1101.93	0.060925
1102.06	0.062725
1102.2	0.0617557
1102.33	0.0613403
1102.46	0.0616173
1102.6	0.0636943
1102.73	0.0624481
1102.87	0.0634173
1103	0.0591249
1103.13	0.0603711
1103.27	0.060648
1103.4	0.0634173
1103.53	0.0614788
1103.67	0.0607865
1103.8	0.0614788
1103.93	0.0628635
1104.07	0.060648
1104.2	0.0614788
1104.34	0.0616173
1104.47	0.0599557
1104.6	0.0624481
1104.74	0.0618942
1104.87	0.0616173
1105	0.0623096
1105.14	0.0623096
1105.27	0.0625865
1105.4	0.0634173
1105.54	0.060925
1105.67	0.0613403
1105.8	0.0621711
1105.94	0.0602326
1106.07	0.0603711
1106.21	0.0591249
1106.34	0.060648
1106.47	0.0616173
1106.61	0.0614788
1106.74	0.0649405
1106.87	0.0639712
1107.01	0.0602326
1107.14	0.0621711
1107.27	0.0612019
1107.41	0.0616173
1107.54	0.0618942

