Source: Spectrum Viewer

Chart: Pulse Spectrum

Series: 
Wavelength (nm)	S (a.u.)
617.638	0.0287938
617.773	0.027275
617.908	0.0287305
618.043	0.0286673
618.178	0.0279711
618.313	0.0279711
618.448	0.0289837
618.583	0.0284141
618.718	0.0277813
618.853	0.0282876
618.988	0.0280344
619.123	0.0284141
619.258	0.0289204
619.394	0.0283508
619.529	0.0288571
619.664	0.0284141
619.799	0.028161
619.934	0.0280344
620.069	0.0275914
620.204	0.0280977
620.339	0.0280977
620.474	0.0282243
620.609	0.0280344
620.744	0.0287938
620.879	0.0292368
621.014	0.0287938
621.149	0.0282876
621.284	0.0282876
621.419	0.0282876
621.554	0.0275914
621.689	0.0289204
621.825	0.0274649
621.96	0.0277813
622.095	0.0278446
622.23	0.0279711
622.365	0.0285407
622.5	0.0274649
622.635	0.0284774
622.77	0.0276547
622.905	0.0287305
623.04	0.0294267
623.175	0.028161
623.31	0.027718
623.445	0.029047
623.58	0.0276547
623.715	0.0287305
623.85	0.0287305
623.985	0.0282243
624.12	0.0286673
624.255	0.0289837
624.39	0.0277813
624.525	0.0283508
624.661	0.0275914
624.796	0.0284141
624.931	0.0285407
625.066	0.0284774
625.201	0.0277813
625.336	0.0284141
625.471	0.0288571
625.606	0.0280977
625.741	0.0289837
625.876	0.0282243
626.011	0.0287938
626.146	0.0282243
626.281	0.029047
626.416	0.0279711
626.551	0.0279079
626.686	0.0288571
626.821	0.0284141
626.956	0.0282243
627.091	0.0280344
627.226	0.0287938
627.361	0.0289204
627.496	0.027718
627.631	0.028604
627.766	0.0282243
627.901	0.0285407
628.036	0.0280344
628.171	0.0287938
628.307	0.0282243
628.442	0.028161
628.577	0.028161
628.712	0.0282243
628.847	0.0287305
628.982	0.0280344
629.117	0.0280977
629.252	0.0289204
629.387	0.028604
629.522	0.0277813
629.657	0.0280344
629.792	0.0287938
629.927	0.0284141
630.062	0.0277813
630.197	0.0283508
630.332	0.029047
630.467	0.0288571
630.602	0.0276547
630.737	0.0278446
630.872	0.0284141
631.007	0.0291102
631.142	0.0289204
631.277	0.0283508
631.412	0.0294899
631.547	0.0287305
631.682	0.0280977
631.817	0.0280344
631.952	0.0285407
632.087	0.0276547
632.222	0.0275914
632.357	0.0280344
632.492	0.0282243
632.627	0.0288571
632.762	0.0288571
632.897	0.0282243
633.032	0.0273383
633.167	0.0287305
633.302	0.0283508
633.437	0.0284141
633.572	0.028161
633.707	0.0296798
633.842	0.0278446
633.978	0.0285407
634.113	0.0282876
634.248	0.0284774
634.383	0.028161
634.518	0.0282876
634.653	0.0286673
634.788	0.0282876
634.923	0.028604
635.058	0.027718
635.193	0.0279711
635.328	0.0280344
635.463	0.0287938
635.598	0.0280344
635.733	0.028604
635.868	0.0289837
636.003	0.0288571
636.138	0.0284141
636.273	0.0275914
636.408	0.0284141
636.543	0.0282243
636.678	0.0283508
636.813	0.0273383
636.948	0.0278446
637.083	0.0284774
637.218	0.0269586
637.353	0.0280977
637.488	0.0282243
637.623	0.0278446
637.758	0.0285407
637.893	0.0280344
638.028	0.0276547
638.163	0.0279711
638.298	0.0287938
638.433	0.0287305
638.568	0.0275282
638.703	0.028161
638.838	0.0282876
638.973	0.0282876
639.108	0.0287938
639.243	0.0284141
639.378	0.0274649
639.513	0.0278446
639.648	0.028604
639.783	0.028161
639.918	0.0282876
640.053	0.0275282
640.188	0.027718
640.323	0.0277813
640.458	0.0275282
640.593	0.0287305
640.728	0.0279079
640.863	0.0274016
640.998	0.0282876
641.133	0.0288571
641.268	0.0275282
641.403	0.0288571
641.538	0.029047
641.673	0.0294899
641.808	0.0287305
641.943	0.028604
642.078	0.0276547
642.213	0.0282876
642.348	0.0274016
642.483	0.0282243
642.618	0.0283508
642.753	0.0282243
642.888	0.0279079
643.023	0.0282243
643.158	0.0280977
643.293	0.0282243
643.428	0.0283508
643.563	0.0289204
643.698	0.0278446
643.833	0.0293001
643.968	0.0285407
644.103	0.0284141
644.237	0.027718
644.372	0.0284774
644.507	0.0276547
644.642	0.0283508
644.777	0.0283508
644.912	0.0275282
645.047	0.0277813
645.182	0.0282243
645.317	0.0282876
645.452	0.028604
645.587	0.0271485
645.722	0.0287938
645.857	0.0277813
645.992	0.0279711
646.127	0.0284774
646.262	0.0282243
646.397	0.0282876
646.532	0.0283508
646.667	0.0284141
646.802	0.0280977
646.937	0.0283508
647.072	0.0287938
647.207	0.0282243
647.342	0.0280344
647.477	0.0280977
647.612	0.0275282
647.747	0.0286673
647.882	0.0283508
648.017	0.0282243
648.152	0.0280344
648.287	0.0280977
648.422	0.0274649
648.557	0.0283508
648.692	0.0274016
648.827	0.0282243
648.962	0.028604
649.097	0.027718
649.232	0.0285407
649.367	0.0280977
649.502	0.0286673
649.637	0.0278446
649.772	0.028604
649.906	0.0276547
650.041	0.0280977
650.176	0.0282243
650.311	0.0282243
650.446	0.0276547
650.581	0.028604
650.716	0.0280977
650.851	0.028604
650.986	0.0287305
651.121	0.0280344
651.256	0.0272117
651.391	0.0286673
651.526	0.0280977
651.661	0.029047
651.796	0.0280344
651.931	0.0282876
652.066	0.0286673
652.201	0.0280344
652.336	0.0287305
652.471	0.0279711
652.606	0.0277813
652.741	0.0279079
652.876	0.027718
653.011	0.0278446
653.146	0.0280977
653.281	0.028604
653.415	0.0282876
653.55	0.0279079
653.685	0.0287305
653.82	0.0287938
653.955	0.0279079
654.09	0.0285407
654.225	0.0280977
654.36	0.0282876
654.495	0.0280344
654.63	0.0279079
654.765	0.0284141
654.9	0.0285407
655.035	0.0277813
655.17	0.0282243
655.305	0.028604
655.44	0.0282243
655.575	0.0278446
655.71	0.0283508
655.845	0.0291735
655.98	0.0277813
656.115	0.0275914
656.25	0.028161
656.384	0.0279079
656.519	0.0284774
656.654	0.0284141
656.789	0.0285407
656.924	0.0284141
657.059	0.0282243
657.194	0.0276547
657.329	0.0278446
657.464	0.0278446
657.599	0.0282876
657.734	0.0279711
657.869	0.0293001
658.004	0.0278446
658.139	0.0282876
658.274	0.0282243
658.409	0.0292368
658.544	0.0279711
658.679	0.0275914
658.813	0.0278446
658.948	0.0280977
659.083	0.027718
659.218	0.0287938
659.353	0.0278446
659.488	0.0287305
659.623	0.0277813
659.758	0.0285407
659.893	0.0287938
660.028	0.027718
660.163	0.028604
660.298	0.0288571
660.433	0.0283508
660.568	0.0276547
660.703	0.0284774
660.838	0.0282876
660.972	0.0284774
661.107	0.0287305
661.242	0.0287305
661.377	0.0284774
661.512	0.027718
661.647	0.0274649
661.782	0.0283508
661.917	0.0284141
662.052	0.028604
662.187	0.0286673
662.322	0.0277813
662.457	0.0275282
662.592	0.0280344
662.727	0.0284141
662.862	0.027718
662.996	0.0284141
663.131	0.0277813
663.266	0.0280344
663.401	0.0293634
663.536	0.028161
663.671	0.0277813
663.806	0.0277813
663.941	0.0282243
664.076	0.0283508
664.211	0.0287938
664.346	0.0285407
664.481	0.0282243
664.616	0.0279079
664.75	0.028161
664.885	0.0287305
665.02	0.027718
665.155	0.0274649
665.29	0.0289204
665.425	0.0285407
665.56	0.0276547
665.695	0.0274016
665.83	0.0284774
665.965	0.0280977
666.1	0.0279711
666.235	0.028161
666.37	0.028604
666.504	0.0282243
666.639	0.028604
666.774	0.0292368
666.909	0.0279711
667.044	0.0274649
667.179	0.0275914
667.314	0.0279711
667.449	0.0282876
667.584	0.0287938
667.719	0.0282876
667.854	0.0292368
667.989	0.028604
668.123	0.0284774
668.258	0.027718
668.393	0.028604
668.528	0.027718
668.663	0.0285407
668.798	0.0283508
668.933	0.0284774
669.068	0.0292368
669.203	0.0283508
669.338	0.0278446
669.473	0.0280977
669.607	0.0274016
669.742	0.0289204
669.877	0.028604
670.012	0.0289837
670.147	0.0285407
670.282	0.0279079
670.417	0.0291102
670.552	0.0287305
670.687	0.027718
670.822	0.0282243
670.957	0.0289204
671.091	0.0282243
671.226	0.0278446
671.361	0.028161
671.496	0.0284774
671.631	0.0282876
671.766	0.027718
671.901	0.0284774
672.036	0.0278446
672.171	0.0277813
672.306	0.0285407
672.44	0.0274649
672.575	0.0283508
672.71	0.0283508
672.845	0.028161
672.98	0.0279079
673.115	0.0283508
673.25	0.0275914
673.385	0.0280977
673.52	0.028161
673.655	0.028604
673.789	0.0293001
673.924	0.0283508
674.059	0.0277813
674.194	0.0277813
674.329	0.0287305
674.464	0.029047
674.599	0.027718
674.734	0.0284774
674.869	0.0280344
675.003	0.0282243
675.138	0.0276547
675.273	0.0277813
675.408	0.0288571
675.543	0.0283508
675.678	0.027718
675.813	0.0283508
675.948	0.0291102
676.083	0.0285407
676.217	0.0279079
676.352	0.0282876
676.487	0.0270852
676.622	0.0280977
676.757	0.028161
676.892	0.0287938
677.027	0.0287305
677.162	0.0286673
677.297	0.0287305
677.431	0.028161
677.566	0.029047
677.701	0.0277813
677.836	0.028604
677.971	0.0282876
678.106	0.028161
678.241	0.0280344
678.376	0.0284774
678.511	0.0284141
678.645	0.0287938
678.78	0.0279079
678.915	0.028161
679.05	0.0282876
679.185	0.0279079
679.32	0.0283508
679.455	0.0282243
679.59	0.0282876
679.724	0.028604
679.859	0.0279711
679.994	0.0286673
680.129	0.0282876
680.264	0.0284141
680.399	0.0278446
680.534	0.028604
680.669	0.027275
680.803	0.0279711
680.938	0.0282876
681.073	0.0296798
681.208	0.0287305
681.343	0.0287305
681.478	0.0279711
681.613	0.0276547
681.748	0.0287938
681.882	0.0280977
682.017	0.0279711
682.152	0.0291102
682.287	0.0288571
682.422	0.029047
682.557	0.0284141
682.692	0.0280344
682.827	0.0280344
682.961	0.0282876
683.096	0.028161
683.231	0.0291735
683.366	0.0277813
683.501	0.0279079
683.636	0.0278446
683.771	0.0284141
683.906	0.0283508
684.04	0.0279711
684.175	0.027718
684.31	0.028604
684.445	0.0285407
684.58	0.0296165
684.715	0.0280977
684.85	0.028604
684.984	0.0283508
685.119	0.028604
685.254	0.0277813
685.389	0.0287305
685.524	0.028604
685.659	0.0283508
685.794	0.0286673
685.928	0.0279079
686.063	0.0284141
686.198	0.028161
686.333	0.0279079
686.468	0.0284141
686.603	0.0284774
686.738	0.028604
686.872	0.0282876
687.007	0.028604
687.142	0.028161
687.277	0.0282243
687.412	0.0289204
687.547	0.0279079
687.682	0.0285407
687.816	0.0282243
687.951	0.028604
688.086	0.0287305
688.221	0.0284774
688.356	0.0284774
688.491	0.0285407
688.626	0.0272117
688.76	0.0286673
688.895	0.0286673
689.03	0.0280977
689.165	0.0287305
689.3	0.0282243
689.435	0.0276547
689.57	0.028604
689.704	0.0282876
689.839	0.0280344
689.974	0.0282876
690.109	0.0291102
690.244	0.0278446
690.379	0.0277813
690.513	0.0280977
690.648	0.0285407
690.783	0.0286673
690.918	0.0280977
691.053	0.0282243
691.188	0.0287305
691.323	0.0284141
691.457	0.0286673
691.592	0.0278446
691.727	0.0291735
691.862	0.029047
691.997	0.0283508
692.132	0.0282243
692.266	0.0284774
692.401	0.0280977
692.536	0.0285407
692.671	0.0289204
692.806	0.027718
692.941	0.0292368
693.075	0.0280977
693.21	0.0275282
693.345	0.0289204
693.48	0.028161
693.615	0.0284774
693.75	0.028161
693.885	0.0279711
694.019	0.0288571
694.154	0.0276547
694.289	0.0285407
694.424	0.0280344
694.559	0.0277813
694.694	0.0284141
694.828	0.0287938
694.963	0.0279711
695.098	0.0284141
695.233	0.0277813
695.368	0.0288571
695.503	0.0292368
695.637	0.0292368
695.772	0.0283508
695.907	0.0283508
696.042	0.0276547
696.177	0.0276547
696.312	0.0278446
696.446	0.0272117
696.581	0.0280344
696.716	0.0282876
696.851	0.0287305
696.986	0.0275282
697.12	0.0277813
697.255	0.0276547
697.39	0.0275282
697.525	0.027718
697.66	0.027718
697.795	0.0284141
697.929	0.0284141
698.064	0.027718
698.199	0.028161
698.334	0.0289204
698.469	0.0285407
698.604	0.0279711
698.738	0.0287938
698.873	0.0278446
699.008	0.0276547
699.143	0.0282243
699.278	0.0277813
699.412	0.0280344
699.547	0.028604
699.682	0.0285407
699.817	0.0294267
699.952	0.0276547
700.087	0.027718
700.221	0.0278446
700.356	0.0287305
700.491	0.0284774
700.626	0.0293001
700.761	0.028604
700.895	0.0287938
701.03	0.0280344
701.165	0.0275914
701.3	0.0286673
701.435	0.028604
701.57	0.0291102
701.704	0.0282876
701.839	0.0270852
701.974	0.028161
702.109	0.0289837
702.244	0.0282243
702.378	0.0278446
702.513	0.028161
702.648	0.0289837
702.783	0.0282876
702.918	0.028604
703.052	0.0277813
703.187	0.0286673
703.322	0.029047
703.457	0.0285407
703.592	0.0284774
703.727	0.0291735
703.861	0.0276547
703.996	0.0280344
704.131	0.0296798
704.266	0.0282243
704.401	0.0273383
704.535	0.0275282
704.67	0.0272117
704.805	0.0274649
704.94	0.028604
705.075	0.0287305
705.209	0.0280977
705.344	0.0277813
705.479	0.028604
705.614	0.0283508
705.749	0.0279079
705.883	0.0286673
706.018	0.0287938
706.153	0.0288571
706.288	0.028604
706.423	0.0288571
706.557	0.0279079
706.692	0.0283508
706.827	0.0286673
706.962	0.0284774
707.097	0.0280344
707.231	0.0293001
707.366	0.0282243
707.501	0.0282876
707.636	0.0284141
707.771	0.0275914
707.905	0.0278446
708.04	0.0280344
708.175	0.028604
708.31	0.0293001
708.445	0.0274016
708.579	0.0279711
708.714	0.0286673
708.849	0.028604
708.984	0.0279079
709.118	0.0287938
709.253	0.0287938
709.388	0.0286673
709.523	0.0293634
709.658	0.0279711
709.792	0.0284774
709.927	0.0282876
710.062	0.0277813
710.197	0.0282876
710.332	0.0280977
710.466	0.0289204
710.601	0.0284141
710.736	0.0282876
710.871	0.027718
711.006	0.0283508
711.14	0.0277813
711.275	0.0282243
711.41	0.0270219
711.545	0.0291735
711.679	0.0284141
711.814	0.0292368
711.949	0.029047
712.084	0.0282243
712.219	0.0279079
712.353	0.0276547
712.488	0.0282243
712.623	0.0287938
712.758	0.0286673
712.892	0.0280977
713.027	0.0283508
713.162	0.0282243
713.297	0.0273383
713.432	0.0282243
713.566	0.0284141
713.701	0.0287938
713.836	0.0282876
713.971	0.028604
714.105	0.0287938
714.24	0.0277813
714.375	0.0284774
714.51	0.0282876
714.645	0.028161
714.779	0.028161
714.914	0.0284141
715.049	0.0282876
715.184	0.0280977
715.318	0.0284141
715.453	0.0280977
715.588	0.0287938
715.723	0.0282243
715.858	0.028604
715.992	0.0285407
716.127	0.027718
716.262	0.0291735
716.397	0.0282243
716.531	0.0291102
716.666	0.028161
716.801	0.0285407
716.936	0.0291735
717.07	0.028161
717.205	0.0285407
717.34	0.0287305
717.475	0.0287938
717.61	0.027718
717.744	0.0283508
717.879	0.0280977
718.014	0.0285407
718.149	0.0279711
718.283	0.0275282
718.418	0.0276547
718.553	0.0284774
718.688	0.0286673
718.822	0.0292368
718.957	0.0288571
719.092	0.0282243
719.227	0.0292368
719.361	0.0283508
719.496	0.0284141
719.631	0.0284141
719.766	0.0285407
719.9	0.0291102
720.035	0.0283508
720.17	0.0280344
720.305	0.0280344
720.44	0.028161
720.574	0.028161
720.709	0.028161
720.844	0.0283508
720.979	0.029047
721.113	0.0280977
721.248	0.0282243
721.383	0.0280344
721.518	0.0279711
721.652	0.0284774
721.787	0.029047
721.922	0.0283508
722.057	0.0280344
722.191	0.0284774
722.326	0.028161
722.461	0.0275282
722.596	0.0279079
722.73	0.028161
722.865	0.0280344
723	0.0293001
723.135	0.0289204
723.269	0.0284774
723.404	0.0273383
723.539	0.0283508
723.674	0.0282876
723.808	0.0282243
723.943	0.028604
724.078	0.0275914
724.213	0.0288571
724.347	0.0286673
724.482	0.0280344
724.617	0.0280977
724.752	0.0275282
724.886	0.0280977
725.021	0.0287938
725.156	0.0279079
725.291	0.0282243
725.425	0.029047
725.56	0.0282243
725.695	0.0283508
725.829	0.0284774
725.964	0.0279079
726.099	0.0292368
726.234	0.0284774
726.368	0.0288571
726.503	0.0291735
726.638	0.0282243
726.773	0.0283508
726.907	0.0279711
727.042	0.0287938
727.177	0.0280344
727.312	0.0282243
727.446	0.0278446
727.581	0.0286673
727.716	0.0291102
727.851	0.0276547
727.985	0.0287938
728.12	0.0278446
728.255	0.0292368
728.389	0.028161
728.524	0.0293001
728.659	0.0289204
728.794	0.0279711
728.928	0.0280977
729.063	0.0289837
729.198	0.0282243
729.333	0.0289837
729.467	0.0284141
729.602	0.0282243
729.737	0.0285407
729.872	0.0283508
730.006	0.0287305
730.141	0.0292368
730.276	0.0289204
730.41	0.0284774
730.545	0.0287938
730.68	0.0284141
730.815	0.0280977
730.949	0.0282876
731.084	0.0275282
731.219	0.028604
731.354	0.0280344
731.488	0.0289204
731.623	0.0283508
731.758	0.028161
731.892	0.0282243
732.027	0.027718
732.162	0.0288571
732.297	0.0270219
732.431	0.0284141
732.566	0.0276547
732.701	0.0287305
732.835	0.0280977
732.97	0.0285407
733.105	0.0279711
733.24	0.0286673
733.374	0.0274016
733.509	0.0280344
733.644	0.0282243
733.779	0.0279711
733.913	0.0296798
734.048	0.0280344
734.183	0.0277813
734.317	0.0294267
734.452	0.0278446
734.587	0.0282876
734.722	0.028161
734.856	0.0287938
734.991	0.0282876
735.126	0.0289837
735.26	0.0279711
735.395	0.0276547
735.53	0.0284774
735.665	0.0275282
735.799	0.028161
735.934	0.0280344
736.069	0.0285407
736.203	0.0289837
736.338	0.028161
736.473	0.0283508
736.607	0.0275282
736.742	0.0284774
736.877	0.0286673
737.012	0.0282876
737.146	0.0278446
737.281	0.0279711
737.416	0.028161
737.55	0.0280344
737.685	0.0285407
737.82	0.0288571
737.955	0.0291102
738.089	0.0282876
738.224	0.0282243
738.359	0.0283508
738.493	0.0280344
738.628	0.0279079
738.763	0.027718
738.897	0.0284774
739.032	0.027718
739.167	0.0282243
739.302	0.0280344
739.436	0.0284774
739.571	0.0274649
739.706	0.0282876
739.84	0.028604
739.975	0.0289837
740.11	0.0284141
740.244	0.0278446
740.379	0.0270219
740.514	0.0283508
740.649	0.0289204
740.783	0.028161
740.918	0.028604
741.053	0.0282876
741.187	0.0287305
741.322	0.0280977
741.457	0.0279079
741.591	0.0279711
741.726	0.028161
741.861	0.0289837
741.996	0.0287938
742.13	0.0280977
742.265	0.0285407
742.4	0.0273383
742.534	0.0279711
742.669	0.028161
742.804	0.0287305
742.938	0.0279711
743.073	0.0282876
743.208	0.0279711
743.342	0.0283508
743.477	0.0286673
743.612	0.027718
743.747	0.0280344
743.881	0.0291735
744.016	0.0287305
744.151	0.029047
744.285	0.0284141
744.42	0.0291735
744.555	0.028604
744.689	0.0279711
744.824	0.0282243
744.959	0.027275
745.093	0.027718
745.228	0.0284141
745.363	0.0280344
745.497	0.0278446
745.632	0.0283508
745.767	0.028161
745.901	0.0279711
746.036	0.0275282
746.171	0.0282243
746.305	0.0287305
746.44	0.0277813
746.575	0.0282243
746.71	0.0282243
746.844	0.0283508
746.979	0.028161
747.114	0.0286673
747.248	0.0279079
747.383	0.0283508
747.518	0.0282243
747.652	0.0275282
747.787	0.0279079
747.922	0.0292368
748.056	0.0280344
748.191	0.0278446
748.326	0.0279079
748.46	0.0286673
748.595	0.0280977
748.73	0.0284141
748.864	0.0284774
748.999	0.0282876
749.134	0.0285407
749.268	0.0295532
749.403	0.0284774
749.538	0.0282243
749.672	0.0282243
749.807	0.028604
749.942	0.029047
750.076	0.0279711
750.211	0.0280344
750.346	0.0283508
750.48	0.0284774
750.615	0.0279079
750.75	0.0284141
750.884	0.0285407
751.019	0.0289837
751.154	0.028604
751.288	0.0289204
751.423	0.0279079
751.558	0.0275282
751.692	0.0287305
751.827	0.0287938
751.962	0.0285407
752.096	0.0279711
752.231	0.028161
752.366	0.0277813
752.5	0.0284774
752.635	0.0288571
752.77	0.0286673
752.904	0.0277813
753.039	0.0286673
753.174	0.0289837
753.308	0.0284141
753.443	0.0284141
753.578	0.0278446
753.712	0.0282876
753.847	0.0286673
753.982	0.0282876
754.116	0.0274016
754.251	0.0280977
754.386	0.027718
754.52	0.0284141
754.655	0.0275914
754.79	0.0286673
754.924	0.0286673
755.059	0.0279711
755.194	0.0282876
755.328	0.0284141
755.463	0.0284774
755.597	0.0291102
755.732	0.0287305
755.867	0.0283508
756.001	0.0291735
756.136	0.028604
756.271	0.0287305
756.405	0.0287305
756.54	0.0292368
756.675	0.027275
756.809	0.0287305
756.944	0.0288571
757.079	0.028604
757.213	0.0282876
757.348	0.0283508
757.483	0.0275914
757.617	0.0294267
757.752	0.0285407
757.887	0.0282243
758.021	0.0283508
758.156	0.0284141
758.29	0.0284774
758.425	0.0279711
758.56	0.0284141
758.694	0.0279079
758.829	0.0289204
758.964	0.0276547
759.098	0.028604
759.233	0.0280344
759.368	0.0287305
759.502	0.0285407
759.637	0.0277813
759.772	0.0282243
759.906	0.027718
760.041	0.0287305
760.175	0.0282243
760.31	0.0284774
760.445	0.0289837
760.579	0.028604
760.714	0.0277813
760.849	0.028604
760.983	0.0282243
761.118	0.0287305
761.253	0.027275
761.387	0.0277813
761.522	0.0282243
761.656	0.0283508
761.791	0.0279711
761.926	0.0282243
762.06	0.0270219
762.195	0.0282243
762.33	0.0288571
762.464	0.0279711
762.599	0.0278446
762.733	0.0279079
762.868	0.0283508
763.003	0.0279711
763.137	0.0285407
763.272	0.0287938
763.407	0.0279711
763.541	0.0288571
763.676	0.0270219
763.811	0.0275282
763.945	0.0278446
764.08	0.0286673
764.214	0.0280344
764.349	0.0279079
764.484	0.0280344
764.618	0.0282876
764.753	0.0286673
764.888	0.0282876
765.022	0.028604
765.157	0.0287305
765.291	0.0274649
765.426	0.0283508
765.561	0.0284774
765.695	0.0284141
765.83	0.0275282
765.965	0.0284141
766.099	0.0275282
766.234	0.0288571
766.368	0.0279079
766.503	0.0273383
766.638	0.0280977
766.772	0.0291102
766.907	0.029047
767.041	0.0287938
767.176	0.0280344
767.311	0.0283508
767.445	0.0280977
767.58	0.0285407
767.715	0.027718
767.849	0.0284774
767.984	0.0285407
768.118	0.0276547
768.253	0.0282243
768.388	0.0277813
768.522	0.0282876
768.657	0.0280344
768.791	0.0284774
768.926	0.0277813
769.061	0.0293634
769.195	0.027718
769.33	0.0280344
769.465	0.028161
769.599	0.027718
769.734	0.0282243
769.868	0.0279079
770.003	0.0285407
770.138	0.0284141
770.272	0.0287938
770.407	0.0284774
770.541	0.0282876
770.676	0.0284141
770.811	0.0280344
770.945	0.0288571
771.08	0.0286673
771.214	0.0282876
771.349	0.0287938
771.484	0.0287305
771.618	0.0289837
771.753	0.0282876
771.887	0.029047
772.022	0.0282876
772.157	0.0279079
772.291	0.0285407
772.426	0.0289837
772.56	0.0287305
772.695	0.028161
772.83	0.0280344
772.964	0.0288571
773.099	0.0280977
773.233	0.0293634
773.368	0.0279711
773.503	0.028161
773.637	0.0288571
773.772	0.029047
773.906	0.0283508
774.041	0.0285407
774.176	0.0279711
774.31	0.0289837
774.445	0.0288571
774.579	0.029047
774.714	0.0278446
774.849	0.0291102
774.983	0.0282876
775.118	0.0286673
775.252	0.0275914
775.387	0.028604
775.522	0.0287938
775.656	0.0286673
775.791	0.0287305
775.925	0.0283508
776.06	0.0280344
776.195	0.0284141
776.329	0.0278446
776.464	0.0294267
776.598	0.0287938
776.733	0.0283508
776.868	0.0284774
777.002	0.0289204
777.137	0.0282243
777.271	0.0282876
777.406	0.0279711
777.54	0.027718
777.675	0.0289204
777.81	0.0278446
777.944	0.0274016
778.079	0.0280977
778.213	0.028604
778.348	0.0280977
778.483	0.0282243
778.617	0.027718
778.752	0.0289204
778.886	0.0287938
779.021	0.0284774
779.155	0.0282876
779.29	0.0285407
779.425	0.0294267
779.559	0.0282876
779.694	0.0285407
779.828	0.0275914
779.963	0.029047
780.098	0.0279711
780.232	0.0280977
780.367	0.0282876
780.501	0.027718
780.636	0.0287305
780.77	0.0289204
780.905	0.0280977
781.04	0.0286673
781.174	0.0286673
781.309	0.027718
781.443	0.0280344
781.578	0.0284774
781.712	0.0282876
781.847	0.0289837
781.982	0.0274016
782.116	0.0283508
782.251	0.0280344
782.385	0.0284141
782.52	0.0282876
782.654	0.028604
782.789	0.0279079
782.924	0.0287305
783.058	0.0283508
783.193	0.0283508
783.327	0.0287305
783.462	0.0285407
783.596	0.028161
783.731	0.0293001
783.866	0.0297431
784	0.0284774
784.135	0.0280344
784.269	0.0284774
784.404	0.0284141
784.538	0.0288571
784.673	0.0279079
784.808	0.027718
784.942	0.0275282
785.077	0.0285407
785.211	0.0274649
785.346	0.027718
785.48	0.0284774
785.615	0.0286673
785.75	0.0282876
785.884	0.0284141
786.019	0.0285407
786.153	0.0280344
786.288	0.0286673
786.422	0.0274016
786.557	0.0282243
786.691	0.027718
786.826	0.0289837
786.961	0.0286673
787.095	0.0280977
787.23	0.0284141
787.364	0.0291735
787.499	0.0282876
787.633	0.0279079
787.768	0.028604
787.902	0.028604
788.037	0.0291735
788.172	0.0285407
788.306	0.0284141
788.441	0.0287305
788.575	0.0285407
788.71	0.028604
788.844	0.0279079
788.979	0.028604
789.113	0.029047
789.248	0.028604
789.383	0.0279079
789.517	0.0280977
789.652	0.0280977
789.786	0.0276547
789.921	0.0287305
790.055	0.0287305
790.19	0.0280977
790.324	0.0280977
790.459	0.0284774
790.594	0.0287938
790.728	0.0279079
790.863	0.0282243
790.997	0.0277813
791.132	0.0284141
791.266	0.0287938
791.401	0.0284774
791.535	0.0284774
791.67	0.0272117
791.804	0.0280344
791.939	0.0277813
792.074	0.0287305
792.208	0.0286673
792.343	0.0283508
792.477	0.0278446
792.612	0.0287938
792.746	0.0292368
792.881	0.029047
793.015	0.028604
793.15	0.027718
793.284	0.0296165
793.419	0.0288571
793.553	0.0280344
793.688	0.0288571
793.823	0.0280344
793.957	0.0284141
794.092	0.0287938
794.226	0.0286673
794.361	0.0282243
794.495	0.0279711
794.63	0.0282243
794.764	0.0284141
794.899	0.0288571
795.033	0.0282243
795.168	0.0288571
795.302	0.0285407
795.437	0.0285407
795.572	0.0280344
795.706	0.0284141
795.841	0.0282243
795.975	0.028161
796.11	0.0288571
796.244	0.0288571
796.379	0.0283508
796.513	0.0280977
796.648	0.0284141
796.782	0.028604
796.917	0.0284774
797.051	0.0286673
797.186	0.029047
797.32	0.0276547
797.455	0.0284141
797.589	0.0287305
797.724	0.0276547
797.859	0.0287938
797.993	0.029047
798.128	0.0285407
798.262	0.028161
798.397	0.0284774
798.531	0.0284774
798.666	0.0284774
798.8	0.0292368
798.935	0.0284141
799.069	0.0291102
799.204	0.0280977
799.338	0.0288571
799.473	0.0282243
799.607	0.0293634
799.742	0.0282876
799.876	0.0289204
800.011	0.0289204
800.145	0.029047
800.28	0.0274649
800.414	0.0292368
800.549	0.0292368
800.683	0.0288571
800.818	0.0294267
800.953	0.0291102
801.087	0.0291735
801.222	0.0293634
801.356	0.0286673
801.491	0.0292368
801.625	0.0284141
801.76	0.0287938
801.894	0.0296165
802.029	0.0279711
802.163	0.0280344
802.298	0.0284141
802.432	0.0293634
802.567	0.0294267
802.701	0.0289204
802.836	0.0296798
802.97	0.0294267
803.105	0.0295532
803.239	0.0291102
803.374	0.0297431
803.508	0.0295532
803.643	0.0299329
803.777	0.0303759
803.912	0.0304392
804.046	0.0294899
804.181	0.030629
804.315	0.0294267
804.45	0.0301861
804.584	0.0296165
804.719	0.0305025
804.853	0.0308822
804.988	0.031072
805.122	0.031072
805.257	0.0311353
805.391	0.0318947
805.526	0.0317681
805.66	0.0315783
805.795	0.0334135
805.929	0.0337299
806.064	0.033983
806.198	0.0348057
806.333	0.0341729
806.467	0.0349956
806.602	0.0363245
806.736	0.0397418
806.871	0.048728
807.005	0.0612581
807.14	0.0523351
807.274	0.0451842
807.409	0.0546766
807.543	0.070624
807.678	0.124668
807.812	0.298443
807.947	0.323377
808.081	0.240919
808.216	0.356157
808.35	0.35312
808.485	0.711809
808.619	0.959942
808.754	0.993165
808.888	1
809.023	0.794836
809.157	0.559486
809.292	0.292684
809.426	0.28952
809.561	0.431211
809.695	0.451968
809.83	0.178079
809.964	0.0477155
810.099	0.0377167
810.233	0.0351221
810.368	0.0337932
810.502	0.0329705
810.637	0.0329705
810.771	0.0324642
810.906	0.0324642
811.04	0.0320213
811.175	0.0316416
811.309	0.0314517
811.444	0.031072
811.578	0.0309454
811.713	0.0309454
811.847	0.0297431
811.982	0.0309454
812.116	0.0289204
812.251	0.0296798
812.385	0.0291102
812.519	0.0298696
812.654	0.0294899
812.788	0.0288571
812.923	0.0298696
813.057	0.0300595
813.192	0.0294899
813.326	0.0283508
813.461	0.0294899
813.595	0.0289204
813.73	0.0289204
813.864	0.0287305
813.999	0.0284774
814.133	0.0297431
814.268	0.0293001
814.402	0.0287305
814.537	0.0286673
814.671	0.0294267
814.806	0.028604
814.94	0.0289837
815.075	0.029047
815.209	0.0292368
815.344	0.0280977
815.478	0.0292368
815.612	0.0282243
815.747	0.0284141
815.881	0.0296798
816.016	0.029047
816.15	0.0286673
816.285	0.0291102
816.419	0.0285407
816.554	0.0288571
816.688	0.0292368
816.823	0.0287305
816.957	0.0286673
817.092	0.0286673
817.226	0.028604
817.361	0.0294899
817.495	0.0291102
817.63	0.0294899
817.764	0.0285407
817.898	0.0291735
818.033	0.027275
818.167	0.0282243
818.302	0.0282243
818.436	0.0280344
818.571	0.0285407
818.705	0.0280344
818.84	0.028161
818.974	0.0291735
819.109	0.0289837
819.243	0.0284141
819.378	0.0284141
819.512	0.0289204
819.646	0.0288571
819.781	0.0282243
819.915	0.0280977
820.05	0.0287938
820.184	0.0284141
820.319	0.027718
820.453	0.0277813
820.588	0.0284141
820.722	0.0280344
820.857	0.0278446
820.991	0.027275
821.126	0.0294899
821.26	0.0291102
821.394	0.0274016
821.529	0.0283508
821.663	0.0286673
821.798	0.0270219
821.932	0.0287305
822.067	0.029047
822.201	0.0280344
822.336	0.027275
822.47	0.0278446
822.605	0.0284774
822.739	0.0283508
822.873	0.0287938
823.008	0.0278446
823.142	0.027275
823.277	0.0275914
823.411	0.0288571
823.546	0.0279079
823.68	0.0279079
823.815	0.0289204
823.949	0.0279711
824.083	0.0282876
824.218	0.0292368
824.352	0.0283508
824.487	0.0288571
824.621	0.0285407
824.756	0.028161
824.89	0.0287305
825.025	0.0284141
825.159	0.0283508
825.293	0.0287305
825.428	0.0284774
825.562	0.0284141
825.697	0.0287938
825.831	0.0269586
825.966	0.0278446
826.1	0.028604
826.235	0.0282876
826.369	0.0286673
826.503	0.0282876
826.638	0.0279079
826.772	0.0289204
826.907	0.028604
827.041	0.0278446
827.176	0.028161
827.31	0.028604
827.445	0.0275914
827.579	0.0280344
827.713	0.0292368
827.848	0.0285407
827.982	0.0291102
828.117	0.0279711
828.251	0.0283508
828.386	0.0274016
828.52	0.028161
828.654	0.0282243
828.789	0.0283508
828.923	0.028161
829.058	0.0282243
829.192	0.0284774
829.327	0.029047
829.461	0.0286673
829.596	0.0287938
829.73	0.0284141
829.864	0.0287305
829.999	0.0280977
830.133	0.0286673
830.268	0.0274649
830.402	0.0287305
830.537	0.0282243
830.671	0.0284774
830.805	0.0285407
830.94	0.0280977
831.074	0.0275914
831.209	0.0279079
831.343	0.0295532
831.478	0.0289204
831.612	0.0279711
831.746	0.0282243
831.881	0.0277813
832.015	0.0283508
832.15	0.028604
832.284	0.0282243
832.418	0.0284141
832.553	0.0274649
832.687	0.0282876
832.822	0.0291735
832.956	0.0280977
833.091	0.0289204
833.225	0.0280344
833.359	0.0276547
833.494	0.0287938
833.628	0.028161
833.763	0.0283508
833.897	0.0287305
834.032	0.0286673
834.166	0.0284141
834.3	0.0284141
834.435	0.0280344
834.569	0.027718
834.704	0.0285407
834.838	0.0285407
834.972	0.0293001
835.107	0.027718
835.241	0.0284141
835.376	0.0280977
835.51	0.0282876
835.645	0.0292368
835.779	0.0279711
835.913	0.0278446
836.048	0.0282876
836.182	0.029047
836.317	0.0280344
836.451	0.0280344
836.585	0.0275914
836.72	0.0279079
836.854	0.0293001
836.989	0.0282243
837.123	0.0284774
837.257	0.0283508
837.392	0.0274016
837.526	0.0282243
837.661	0.0275282
837.795	0.0284141
837.929	0.0286673
838.064	0.0288571
838.198	0.0278446
838.333	0.0287938
838.467	0.028161
838.602	0.0282243
838.736	0.0291102
838.87	0.028161
839.005	0.0274016
839.139	0.0284774
839.274	0.0279711
839.408	0.0285407
839.542	0.028604
839.677	0.0287305
839.811	0.0288571
839.946	0.0282243
840.08	0.0282876
840.214	0.0283508
840.349	0.0288571
840.483	0.0274016
840.618	0.0282243
840.752	0.0283508
840.886	0.0293001
841.021	0.0284774
841.155	0.0273383
841.29	0.0280344
841.424	0.028161
841.558	0.0279079
841.693	0.0282876
841.827	0.0289837
841.961	0.0276547
842.096	0.028161
842.23	0.0286673
842.365	0.0280977
842.499	0.0294899
842.633	0.0280977
842.768	0.0284141
842.902	0.0284141
843.037	0.0284141
843.171	0.0283508
843.305	0.0284141
843.44	0.0277813
843.574	0.0289837
843.709	0.0280344
843.843	0.0280344
843.977	0.0276547
844.112	0.028161
844.246	0.0282876
844.381	0.0280344
844.515	0.0285407
844.649	0.0282243
844.784	0.0285407
844.918	0.0280344
845.052	0.0283508
845.187	0.027718
845.321	0.0289204
845.456	0.0282243
845.59	0.0282243
845.724	0.0291102
845.859	0.027275
845.993	0.0284141
846.128	0.0282243
846.262	0.0282243
846.396	0.0291735
846.531	0.0289204
846.665	0.0282876
846.799	0.0293001
846.934	0.0287305
847.068	0.0280344
847.203	0.0284774
847.337	0.0284141
847.471	0.0284141
847.606	0.0280344
847.74	0.0284141
847.874	0.0286673
848.009	0.0284774
848.143	0.0278446
848.278	0.0287938
848.412	0.0277813
848.546	0.0275914
848.681	0.0280344
848.815	0.0284141
848.949	0.0282243
849.084	0.0280344
849.218	0.028161
849.353	0.0288571
849.487	0.0275282
849.621	0.0289837
849.756	0.0289204
849.89	0.0278446
850.024	0.028161
850.159	0.0282876
850.293	0.029047
850.428	0.0288571
850.562	0.0280344
850.696	0.0272117
850.831	0.0289204
850.965	0.0284774
851.099	0.0282876
851.234	0.0277813
851.368	0.0282876
851.502	0.0293634
851.637	0.028604
851.771	0.0279079
851.906	0.0287938
852.04	0.0284141
852.174	0.028161
852.309	0.0278446
852.443	0.0288571
852.577	0.029047
852.712	0.027718
852.846	0.0280977
852.98	0.0289204
853.115	0.0280977
853.249	0.027275
853.384	0.0289837
853.518	0.0278446
853.652	0.0280977
853.787	0.0280977
853.921	0.0287938
854.055	0.0282243
854.19	0.0279711
854.324	0.0280977
854.458	0.0287305
854.593	0.0285407
854.727	0.0282876
854.861	0.0275914
854.996	0.0293001
855.13	0.029047
855.265	0.0284774
855.399	0.028604
855.533	0.0274649
855.668	0.0278446
855.802	0.0270852
855.936	0.0275282
856.071	0.0286673
856.205	0.0277813
856.339	0.0275914
856.474	0.0280344
856.608	0.0282876
856.742	0.0280977
856.877	0.0280977
857.011	0.0278446
857.145	0.0279711
857.28	0.028161
857.414	0.028604
857.549	0.0274649
857.683	0.0283508
857.817	0.0283508
857.952	0.0280344
858.086	0.0280977
858.22	0.0279711
858.355	0.0280344
858.489	0.0293634
858.623	0.0286673
858.758	0.028604
858.892	0.0293634
859.026	0.0279079
859.161	0.0286673
859.295	0.0293001
859.429	0.027718
859.564	0.0284141
859.698	0.0278446
859.832	0.0280977
859.967	0.0278446
860.101	0.0278446
860.235	0.0292368
860.37	0.028161
860.504	0.0279079
860.638	0.0279711
860.773	0.0283508
860.907	0.028161
861.041	0.0283508
861.176	0.0275282
861.31	0.0278446
861.444	0.0289837
861.579	0.0278446
861.713	0.0275282
861.847	0.0291102
861.982	0.0287938
862.116	0.0280977
862.25	0.0274649
862.385	0.029047
862.519	0.027275
862.653	0.0282876
862.788	0.0282876
862.922	0.0280977
863.056	0.0289204
863.191	0.028161
863.325	0.0287938
863.459	0.028161
863.594	0.0279711
863.728	0.0284774
863.862	0.0288571
863.997	0.0280344
864.131	0.0284774
864.265	0.0282243
864.4	0.0279711
864.534	0.0275282
864.668	0.0279079
864.803	0.0278446
864.937	0.0282876
865.071	0.0284774
865.206	0.0285407
865.34	0.0284774
865.474	0.0276547
865.609	0.0275282
865.743	0.0282243
865.877	0.0280344
866.012	0.029047
866.146	0.0282876
866.28	0.0288571
866.415	0.0279711
866.549	0.0282876
866.683	0.0291102
866.818	0.0288571
866.952	0.0276547
867.086	0.028604
867.221	0.0282243
867.355	0.028161
867.489	0.027718
867.623	0.0284141
867.758	0.0278446
867.892	0.0280344
868.026	0.027275
868.161	0.0287938
868.295	0.0280977
868.429	0.0287305
868.564	0.0278446
868.698	0.027718
868.832	0.028604
868.967	0.0287305
869.101	0.027718
869.235	0.0285407
869.37	0.028161
869.504	0.0279079
869.638	0.028161
869.773	0.0271485
869.907	0.0288571
870.041	0.0284774
870.175	0.028604
870.31	0.0276547
870.444	0.0277813
870.578	0.0284774
870.713	0.0274016
870.847	0.0289837
870.981	0.0279079
871.116	0.0277813
871.25	0.0285407
871.384	0.0284774
871.519	0.0275282
871.653	0.0287305
871.787	0.0289837
871.921	0.0282243
872.056	0.028604
872.19	0.0273383
872.324	0.0284774
872.459	0.0288571
872.593	0.0279079
872.727	0.0282876
872.862	0.029047
872.996	0.028604
873.13	0.0285407
873.264	0.0287305
873.399	0.0279711
873.533	0.0282876
873.667	0.0284141
873.802	0.028161
873.936	0.0284774
874.07	0.0284774
874.205	0.0292368
874.339	0.0284774
874.473	0.0284141
874.607	0.0282243
874.742	0.0277813
874.876	0.0282876
875.01	0.0284141
875.145	0.0283508
875.279	0.0286673
875.413	0.0287305
875.548	0.0282243
875.682	0.0285407
875.816	0.0289837
875.95	0.0287938
876.085	0.0284141
876.219	0.028161
876.353	0.0274649
876.488	0.0282876
876.622	0.027718
876.756	0.0279711
876.89	0.0284141
877.025	0.0284774
877.159	0.0287305
877.293	0.0280977
877.428	0.0286673
877.562	0.0282876
877.696	0.0285407
877.83	0.028604
877.965	0.0276547
878.099	0.0284141
878.233	0.0284141
878.368	0.0292368
878.502	0.0285407
878.636	0.0285407
878.77	0.0282243
878.905	0.0279079
879.039	0.0276547
879.173	0.0284774
879.308	0.027718
879.442	0.0271485
879.576	0.028604
879.71	0.0278446
879.845	0.0279079
879.979	0.0279711
880.113	0.0292368
880.248	0.0274649
880.382	0.0282243
880.516	0.0280344
880.65	0.027275
880.785	0.028604
880.919	0.0282876
881.053	0.0279711
881.188	0.0287305
881.322	0.0278446
881.456	0.0274649
881.59	0.0282876
881.725	0.0282876
881.859	0.0280977
881.993	0.0279079
882.127	0.0275914
882.262	0.0279711
882.396	0.0284141
882.53	0.0288571
882.665	0.0275914
882.799	0.0289204
882.933	0.0287305
883.067	0.0282243
883.202	0.028161
883.336	0.0280977
883.47	0.0285407
883.604	0.0282243
883.739	0.0287938
883.873	0.0284774
884.007	0.0282876
884.142	0.0287938
884.276	0.0280344
884.41	0.0278446
884.544	0.0280344
884.679	0.0280344
884.813	0.0284141
884.947	0.0289837
885.081	0.0289837
885.216	0.0286673
885.35	0.0280977
885.484	0.0283508
885.618	0.0288571
885.753	0.0286673
885.887	0.027718
886.021	0.0280344
886.155	0.028604
886.29	0.0288571
886.424	0.027718
886.558	0.0274649
886.693	0.0287305
886.827	0.0288571
886.961	0.028161
887.095	0.0274016
887.23	0.0274649
887.364	0.028604
887.498	0.0279711
887.632	0.028161
887.767	0.028161
887.901	0.0287305
888.035	0.0289204
888.169	0.0280344
888.304	0.0282876
888.438	0.0287938
888.572	0.0283508
888.706	0.0279079
888.841	0.0286673
888.975	0.0277813
889.109	0.027718
889.243	0.0275914
889.378	0.0289204
889.512	0.0278446
889.646	0.0288571
889.78	0.029047
889.915	0.0285407
890.049	0.0279711
890.183	0.028604
890.317	0.0287938
890.452	0.0278446
890.586	0.0284141
890.72	0.0287938
890.854	0.0279711
890.989	0.0278446
891.123	0.0276547
891.257	0.0287938
891.391	0.028161
891.526	0.0289204
891.66	0.0280977
891.794	0.0280977
891.928	0.0284774
892.063	0.0287938
892.197	0.0279079
892.331	0.027275
892.465	0.0279711
892.6	0.0289204
892.734	0.0280977
892.868	0.0282876
893.002	0.028161
893.137	0.0283508
893.271	0.0287938
893.405	0.028604
893.539	0.0280344
893.674	0.028161
893.808	0.0286673
893.942	0.0274016
894.076	0.0287938
894.21	0.0282243
894.345	0.0275282
894.479	0.0285407
894.613	0.0282876
894.747	0.0285407
894.882	0.027718
895.016	0.0277813
895.15	0.0284141
895.284	0.0279079
895.419	0.029047
895.553	0.027718
895.687	0.0284141
895.821	0.0292368
895.956	0.0279711
896.09	0.0291102
896.224	0.0282243
896.358	0.0275282
896.492	0.0285407
896.627	0.027718
896.761	0.0280344
896.895	0.0283508
897.029	0.028161
897.164	0.028604
897.298	0.0284774
897.432	0.0282243
897.566	0.0279711
897.701	0.0284774
897.835	0.0287938
897.969	0.0277813
898.103	0.0280977
898.237	0.0287305
898.372	0.0279711
898.506	0.0284141
898.64	0.0282243
898.774	0.028161
898.909	0.0287305
899.043	0.0284774
899.177	0.0286673
899.311	0.0280344
899.445	0.0280344
899.58	0.0274016
899.714	0.0296165
899.848	0.0279079
899.982	0.0276547
900.117	0.0287305
900.251	0.0284774
900.385	0.0277813
900.519	0.0280977
900.653	0.0280344
900.788	0.0287938
900.922	0.0282243
901.056	0.0280977
901.19	0.028604
901.325	0.0287305
901.459	0.0284774
901.593	0.0287938
901.727	0.0270219
901.861	0.0282243
901.996	0.0280344
902.13	0.0274649
902.264	0.0284774
902.398	0.0284141
902.532	0.0278446
902.667	0.0280344
902.801	0.028604
902.935	0.0279079
903.069	0.0284774
903.204	0.0282243
903.338	0.0287938
903.472	0.0288571
903.606	0.028604
903.74	0.0286673
903.875	0.0279711
904.009	0.028604
904.143	0.029047
904.277	0.0279711
904.411	0.0285407
904.546	0.029047
904.68	0.0284774
904.814	0.0271485
904.948	0.0282243
905.082	0.0274649
905.217	0.029047
905.351	0.028604
905.485	0.0291102
905.619	0.0280977
905.753	0.028161
905.888	0.0276547
906.022	0.0285407
906.156	0.0287305
906.29	0.0289837
906.424	0.028161
906.559	0.0284774
906.693	0.0286673
906.827	0.0287938
906.961	0.0287938
907.095	0.0282243
907.23	0.0279079
907.364	0.0284774
907.498	0.0282876
907.632	0.027718
907.766	0.0280977
907.901	0.0284774
908.035	0.0275914
908.169	0.0282243
908.303	0.028161
908.437	0.0282876
908.572	0.028161
908.706	0.0280977
908.84	0.0291102
908.974	0.0289204
909.108	0.0280344
909.243	0.0273383
909.377	0.0286673
909.511	0.0278446
909.645	0.0282243
909.779	0.0275914
909.914	0.0277813
910.048	0.0287938
910.182	0.0280977
910.316	0.0284774
910.45	0.0288571
910.585	0.0282876
910.719	0.0279711
910.853	0.0287305
910.987	0.0279711
911.121	0.0268953
911.255	0.028161
911.39	0.0289837
911.524	0.028161
911.658	0.0287305
911.792	0.0284141
911.926	0.0282876
912.061	0.0284141
912.195	0.0280977
912.329	0.0280977
912.463	0.0291735
912.597	0.0287305
912.732	0.0282876
912.866	0.0288571
913	0.0289837
913.134	0.0282876
913.268	0.0286673
913.402	0.0284141
913.537	0.0275282
913.671	0.0288571
913.805	0.0280977
913.939	0.0285407
914.073	0.0287938
914.208	0.0282243
914.342	0.0277813
914.476	0.0278446
914.61	0.028161
914.744	0.0288571
914.878	0.0287938
915.013	0.0282243
915.147	0.0278446
915.281	0.0285407
915.415	0.0285407
915.549	0.0294899
915.683	0.0280977
915.818	0.0279711
915.952	0.029047
916.086	0.0291102
916.22	0.0279079
916.354	0.028604
916.488	0.0280344
916.623	0.0280344
916.757	0.0283508
916.891	0.0278446
917.025	0.0284774
917.159	0.0279711
917.293	0.0285407
917.428	0.0291735
917.562	0.028161
917.696	0.0289204
917.83	0.0280344
917.964	0.0276547
918.098	0.0279711
918.233	0.0289837
918.367	0.0280977
918.501	0.0280344
918.635	0.0282876
918.769	0.0284774
918.903	0.0282243
919.038	0.0282876
919.172	0.0278446
919.306	0.0276547
919.44	0.0276547
919.574	0.0287305
919.708	0.0282876
919.843	0.0279711
919.977	0.029047
920.111	0.0291102
920.245	0.0287305
920.379	0.0275914
920.513	0.0286673
920.648	0.0282876
920.782	0.0296165
920.916	0.028161
921.05	0.0284774
921.184	0.0289837
921.318	0.0282243
921.453	0.0284141
921.587	0.0276547
921.721	0.0286673
921.855	0.0287938
921.989	0.0283508
922.123	0.0282243
922.257	0.0279079
922.392	0.0287305
922.526	0.027718
922.66	0.0286673
922.794	0.0274649
922.928	0.0287938
923.062	0.0286673
923.197	0.0282876
923.331	0.0271485
923.465	0.0291102
923.599	0.0284774
923.733	0.0289837
923.867	0.0282243
924.001	0.0288571
924.136	0.0277813
924.27	0.0274649
924.404	0.0280344
924.538	0.0287305
924.672	0.0275914
924.806	0.0282876
924.94	0.0282243
925.075	0.0284774
925.209	0.0274016
925.343	0.0295532
925.477	0.0285407
925.611	0.0279711
925.745	0.0287305
925.879	0.0278446
926.014	0.0273383
926.148	0.0286673
926.282	0.0284141
926.416	0.0282876
926.55	0.0287305
926.684	0.0285407
926.818	0.0274649
926.953	0.0289837
927.087	0.027718
927.221	0.0285407
927.355	0.029047
927.489	0.0284774
927.623	0.0277813
927.757	0.028161
927.892	0.0277813
928.026	0.0282876
928.16	0.0285407
928.294	0.0282876
928.428	0.0275914
928.562	0.0286673
928.696	0.0280977
928.831	0.0284774
928.965	0.0283508
929.099	0.028604
929.233	0.0283508
929.367	0.0287305
929.501	0.0275914
929.635	0.028161
929.769	0.0287938
929.904	0.0279711
930.038	0.0277813
930.172	0.0287305
930.306	0.0272117
930.44	0.0275914
930.574	0.027275
930.708	0.0288571
930.843	0.0279711
930.977	0.028604
931.111	0.0283508
931.245	0.0280344
931.379	0.0280977
931.513	0.0287305
931.647	0.0284141
931.781	0.0280977
931.916	0.029047
932.05	0.0288571
932.184	0.0287938
932.318	0.028161
932.452	0.0280344
932.586	0.0287305
932.72	0.0284141
932.854	0.0282876
932.989	0.0282876
933.123	0.0284774
933.257	0.0285407
933.391	0.0285407
933.525	0.0283508
933.659	0.0276547
933.793	0.0278446
933.927	0.0280977
934.061	0.029047
934.196	0.0280977
934.33	0.029047
934.464	0.0289837
934.598	0.0284141
934.732	0.0278446
934.866	0.0277813
935	0.028161
935.134	0.0279079
935.269	0.0282876
935.403	0.027275
935.537	0.0280977
935.671	0.0279079
935.805	0.0282243
935.939	0.0280344
936.073	0.0285407
936.207	0.0279079
936.341	0.029047
936.476	0.029047
936.61	0.0280977
936.744	0.0280344
936.878	0.0279079
937.012	0.028604
937.146	0.0282243
937.28	0.0274649
937.414	0.0282876
937.548	0.028161
937.683	0.0275282
937.817	0.0282243
937.951	0.0285407
938.085	0.0287938
938.219	0.0287305
938.353	0.028161
938.487	0.0287938
938.621	0.027718
938.755	0.0270219
938.889	0.0278446
939.024	0.0284141
939.158	0.0282876
939.292	0.0285407
939.426	0.0282876
939.56	0.028161
939.694	0.0289837
939.828	0.0284774
939.962	0.028604
940.096	0.0277813
940.231	0.0285407
940.365	0.028604
940.499	0.0279079
940.633	0.028161
940.767	0.0274649
940.901	0.0275282
941.035	0.0289204
941.169	0.0285407
941.303	0.0280344
941.437	0.0291735
941.571	0.0285407
941.706	0.0284774
941.84	0.028604
941.974	0.028161
942.108	0.0286673
942.242	0.0285407
942.376	0.0280977
942.51	0.0279079
942.644	0.0283508
942.778	0.0282243
942.912	0.0277813
943.047	0.0287305
943.181	0.0289837
943.315	0.0278446
943.449	0.027718
943.583	0.0283508
943.717	0.0283508
943.851	0.0277813
943.985	0.0286673
944.119	0.0289837
944.253	0.0277813
944.387	0.0289204
944.522	0.0279079
944.656	0.0282243
944.79	0.0279079
944.924	0.0293001
945.058	0.0286673
945.192	0.0285407
945.326	0.0293001
945.46	0.0273383
945.594	0.0276547
945.728	0.0293634
945.862	0.0285407
945.996	0.0283508
946.131	0.028161
946.265	0.0279711
946.399	0.0277813
946.533	0.0283508
946.667	0.0288571
946.801	0.028161
946.935	0.0276547
947.069	0.0283508
947.203	0.0282243
947.337	0.0286673
947.471	0.0280344
947.605	0.0271485
947.739	0.0287938
947.874	0.0283508
948.008	0.0288571
948.142	0.0273383
948.276	0.0298064
948.41	0.0282876
948.544	0.0280344
948.678	0.0280977
948.812	0.0282876
948.946	0.0279079
949.08	0.0273383
949.214	0.0285407
949.348	0.0287938
949.482	0.0287938
949.617	0.0284774
949.751	0.0289204
949.885	0.0285407
950.019	0.0283508
950.153	0.0280344
950.287	0.0285407
950.421	0.0283508
950.555	0.0279079
950.689	0.0280344
950.823	0.0284141
950.957	0.028604
951.091	0.0287938
951.225	0.0286673
951.359	0.0276547
951.493	0.028161
951.628	0.0275914
951.762	0.0279079
951.896	0.0282876
952.03	0.0280977
952.164	0.0279711
952.298	0.0293001
952.432	0.0279711
952.566	0.0279711
952.7	0.0279711
952.834	0.0283508
952.968	0.0279079
953.102	0.0275914
953.236	0.028604
953.37	0.0280344
953.504	0.029047
953.639	0.0287305
953.773	0.0282876
953.907	0.0279711
954.041	0.0284774
954.175	0.0285407
954.309	0.028604
954.443	0.0287305
954.577	0.0285407
954.711	0.0294267
954.845	0.0274649
954.979	0.0285407
955.113	0.027718
955.247	0.0282243
955.381	0.0280977
955.515	0.0287305
955.649	0.0283508
955.783	0.0284774
955.917	0.0283508
956.052	0.0287938
956.186	0.0277813
956.32	0.0284774
956.454	0.0287305
956.588	0.0279079
956.722	0.0280344
956.856	0.0284774
956.99	0.0280344
957.124	0.0287938
957.258	0.028161
957.392	0.0289204
957.526	0.0286673
957.66	0.0282876
957.794	0.0279711
957.928	0.0282243
958.062	0.0291735
958.196	0.027718
958.33	0.028161
958.464	0.0277813
958.598	0.0278446
958.733	0.0282876
958.867	0.0285407
959.001	0.0276547
959.135	0.0280344
959.269	0.0275282
959.403	0.0280344
959.537	0.0284774
959.671	0.028161
959.805	0.0284774
959.939	0.0287305
960.073	0.0280977
960.207	0.0275282
960.341	0.0277813
960.475	0.0284774
960.609	0.0289837
960.743	0.0293001
960.877	0.0282243
961.011	0.0287305
961.145	0.028604
961.279	0.0275914
961.413	0.0284774
961.547	0.0282876
961.681	0.0287938
961.815	0.0292368
961.949	0.0288571
962.083	0.0274649
962.218	0.0282243
962.352	0.0282243
962.486	0.0280344
962.62	0.0279711
962.754	0.028604
962.888	0.0280344
963.022	0.0276547
963.156	0.0279711
963.29	0.0280344
963.424	0.0276547
963.558	0.0275282
963.692	0.0282243
963.826	0.0282243
963.96	0.0284774
964.094	0.0288571
964.228	0.0282876
964.362	0.0289204
964.496	0.028161
964.63	0.0278446
964.764	0.0286673
964.898	0.0278446
965.032	0.0289837
965.166	0.0282876
965.3	0.0287305
965.434	0.0283508
965.568	0.0280977
965.702	0.0276547
965.836	0.0286673
965.97	0.0284141
966.104	0.0287938
966.238	0.0282876
966.372	0.0274016
966.506	0.0284141
966.64	0.0282243
966.774	0.028604
966.908	0.0284774
967.043	0.0286673
967.177	0.0287305
967.311	0.0283508
967.445	0.0280977
967.579	0.0280344
967.713	0.0289837
967.847	0.0280344
967.981	0.028604
968.115	0.027718
968.249	0.0282243
968.383	0.0280977
968.517	0.0289837
968.651	0.0282243
968.785	0.0283508
968.919	0.0289204
969.053	0.0283508
969.187	0.0278446
969.321	0.0285407
969.455	0.028161
969.589	0.0279079
969.723	0.0289204
969.857	0.0284141
969.991	0.0278446
970.125	0.0284774
970.259	0.0287305
970.393	0.0282243
970.527	0.029047
970.661	0.0283508
970.795	0.0289837
970.929	0.0278446
971.063	0.029047
971.197	0.0282243
971.331	0.0284774
971.465	0.0282876
971.599	0.0287305
971.733	0.0279711
971.867	0.0284774
972.001	0.0282876
972.135	0.0287305
972.269	0.028161
972.403	0.0292368
972.537	0.0284141
972.671	0.028161
972.805	0.0279079
972.939	0.0283508
973.073	0.0280344
973.207	0.028604
973.341	0.028604
973.475	0.0276547
973.609	0.0284774
973.743	0.0287938
973.877	0.0286673
974.011	0.0280977
974.145	0.0282243
974.279	0.028604
974.413	0.027718
974.547	0.0279079
974.681	0.0275282
974.815	0.0277813
974.949	0.0282876
975.083	0.0285407
975.217	0.029047
975.351	0.0283508
975.485	0.0293001
975.619	0.0284774
975.753	0.0284141
975.887	0.0282243
976.021	0.0280344
976.155	0.0284141
976.289	0.0286673
976.423	0.0284141
976.557	0.0287305
976.691	0.0288571
976.825	0.028161
976.959	0.0279079
977.093	0.0284774
977.227	0.0279711
977.361	0.0279711
977.495	0.0279711
977.629	0.0286673
977.763	0.0274016
977.897	0.0276547
978.031	0.0287938
978.165	0.0285407
978.299	0.0285407
978.433	0.0283508
978.567	0.028604
978.701	0.0280977
978.835	0.0292368
978.969	0.0284774
979.103	0.0280977
979.237	0.0282876
979.371	0.0280977
979.505	0.0285407
979.639	0.0284141
979.773	0.0282876
979.907	0.0285407
980.041	0.0282876
980.175	0.0289204
980.308	0.0294267
980.442	0.027275
980.576	0.0286673
980.71	0.0284774
980.844	0.0289204
980.978	0.0288571
981.112	0.0275282
981.246	0.0287305
981.38	0.0279711
981.514	0.0289837
981.648	0.0280977
981.782	0.0279079
981.916	0.0283508
982.05	0.0282876
982.184	0.029047
982.318	0.0282876
982.452	0.0286673
982.586	0.0287938
982.72	0.028161
982.854	0.0288571
982.988	0.0285407
983.122	0.0279711
983.256	0.0288571
983.39	0.028161
983.524	0.0277813
983.658	0.0284141
983.792	0.0289204
983.926	0.0284141
984.06	0.0284774
984.194	0.0280977
984.328	0.0277813
984.462	0.0278446
984.596	0.0282243
984.73	0.0274016
984.864	0.0286673
984.998	0.0284141
985.132	0.0279079
985.265	0.0280344
985.399	0.0275282
985.533	0.0284774
985.667	0.0282243
985.801	0.0279711
985.935	0.0274649
986.069	0.0294899
986.203	0.0278446
986.337	0.0287305
986.471	0.0277813
986.605	0.0274016
986.739	0.0280344
986.873	0.0274016
987.007	0.0291735
987.141	0.0284141
987.275	0.0287938
987.409	0.0279079
987.543	0.0284141
987.677	0.0285407
987.811	0.0280344
987.945	0.0280344
988.079	0.0279711
988.213	0.0284141
988.347	0.0293001
988.481	0.0279711
988.614	0.0284774
988.748	0.0287305
988.882	0.0288571
989.016	0.0285407
989.15	0.0284141
989.284	0.027718
989.418	0.029047
989.552	0.0279711
989.686	0.027275
989.82	0.0282243
989.954	0.0277813
990.088	0.0286673
990.222	0.0284774
990.356	0.0280977
990.49	0.0289204
990.624	0.0276547
990.758	0.0287305
990.892	0.0270852
991.026	0.029047
991.16	0.0267055
991.294	0.0284774
991.427	0.0277813
991.561	0.027718
991.695	0.028604
991.829	0.0289204
991.963	0.0282243
992.097	0.0266422
992.231	0.0282243
992.365	0.027718
992.499	0.0278446
992.633	0.029047
992.767	0.0279711
992.901	0.0288571
993.035	0.0282243
993.169	0.0282243
993.303	0.0278446
993.437	0.0289204
993.571	0.0277813
993.704	0.0294899
993.838	0.0292368
993.972	0.0284774
994.106	0.028161
994.24	0.0280344
994.374	0.0277813
994.508	0.028604
994.642	0.0282876
994.776	0.0275914
994.91	0.0287938
995.044	0.0280344
995.178	0.0284141
995.312	0.0291735
995.446	0.0279711
995.58	0.0277813
995.714	0.028604
995.847	0.0280977
995.981	0.0280344
996.115	0.0282243
996.249	0.0280977
996.383	0.027718
996.517	0.0279079
996.651	0.0275914
996.785	0.0284141
996.919	0.0282876
997.053	0.0282876
997.187	0.0279711
997.321	0.0282243
997.455	0.0283508
997.589	0.0286673
997.722	0.027718
997.856	0.0280977
997.99	0.0274016
998.124	0.0276547
998.258	0.0285407
998.392	0.0280977
998.526	0.0284141
998.66	0.0284141
998.794	0.0284141
998.928	0.0280344
999.062	0.0279079
999.196	0.0287938
999.33	0.0275282
999.464	0.0278446
999.597	0.0289837
999.731	0.0280344
999.865	0.0280344
999.999	0.0270852
1000.13	0.0282876
1000.27	0.0285407
1000.4	0.0284141
1000.53	0.0280977
1000.67	0.0279711
1000.8	0.0277813
1000.94	0.0292368
1001.07	0.0278446
1001.2	0.0285407
1001.34	0.0280977
1001.47	0.0284141
1001.61	0.0275914
1001.74	0.0287938
1001.87	0.0285407
1002.01	0.029047
1002.14	0.029047
1002.28	0.0280344
1002.41	0.0280977
1002.54	0.0280977
1002.68	0.0291735
1002.81	0.0282243
1002.95	0.0279079
1003.08	0.0283508
1003.21	0.0283508
1003.35	0.0287938
1003.48	0.028161
1003.61	0.0292368
1003.75	0.0285407
1003.88	0.0282876
1004.02	0.0283508
1004.15	0.0300595
1004.28	0.0288571
1004.42	0.0282243
1004.55	0.0284774
1004.69	0.0279711
1004.82	0.0287938
1004.95	0.0292368
1005.09	0.0286673
1005.22	0.0295532
1005.36	0.0287305
1005.49	0.0294267
1005.62	0.0282243
1005.76	0.0287938
1005.89	0.0286673
1006.03	0.0282243
1006.16	0.0286673
1006.29	0.0287305
1006.43	0.0284774
1006.56	0.0278446
1006.69	0.0279711
1006.83	0.028161
1006.96	0.0280977
1007.1	0.0279079
1007.23	0.0292368
1007.36	0.0292368
1007.5	0.0287305
1007.63	0.0292368
1007.77	0.0292368
1007.9	0.0282243
1008.03	0.029047
1008.17	0.028604
1008.3	0.0272117
1008.44	0.0278446
1008.57	0.028604
1008.7	0.0278446
1008.84	0.0276547
1008.97	0.0288571
1009.1	0.0278446
1009.24	0.0275914
1009.37	0.0291102
1009.51	0.0278446
1009.64	0.0282243
1009.77	0.0283508
1009.91	0.0271485
1010.04	0.027718
1010.18	0.0274016
1010.31	0.0283508
1010.44	0.028604
1010.58	0.029047
1010.71	0.0278446
1010.85	0.0284774
1010.98	0.0287305
1011.11	0.0277813
1011.25	0.0288571
1011.38	0.0287305
1011.51	0.0284141
1011.65	0.0277813
1011.78	0.0282243
1011.92	0.0280344
1012.05	0.0275282
1012.18	0.028161
1012.32	0.0282876
1012.45	0.0279079
1012.59	0.027718
1012.72	0.0278446
1012.85	0.0280977
1012.99	0.0291735
1013.12	0.0285407
1013.26	0.0284141
1013.39	0.0286673
1013.52	0.028161
1013.66	0.0274016
1013.79	0.028161
1013.92	0.0282243
1014.06	0.0280977
1014.19	0.0275282
1014.33	0.0278446
1014.46	0.0280344
1014.59	0.0292368
1014.73	0.0277813
1014.86	0.0280344
1015	0.0279711
1015.13	0.0279711
1015.26	0.027718
1015.4	0.0285407
1015.53	0.0286673
1015.67	0.0280977
1015.8	0.0284774
1015.93	0.0282876
1016.07	0.0284774
1016.2	0.0279711
1016.33	0.0288571
1016.47	0.0280344
1016.6	0.029047
1016.74	0.0276547
1016.87	0.0278446
1017	0.0291735
1017.14	0.0280344
1017.27	0.027718
1017.41	0.0276547
1017.54	0.0285407
1017.67	0.0291735
1017.81	0.0282243
1017.94	0.0277813
1018.07	0.0274016
1018.21	0.0286673
1018.34	0.028161
1018.48	0.0279711
1018.61	0.0291102
1018.74	0.0271485
1018.88	0.0287305
1019.01	0.0285407
1019.15	0.0288571
1019.28	0.0274016
1019.41	0.028604
1019.55	0.0284774
1019.68	0.027718
1019.82	0.0279711
1019.95	0.0279711
1020.08	0.028604
1020.22	0.0276547
1020.35	0.0284774
1020.48	0.0286673
1020.62	0.0283508
1020.75	0.0286673
1020.89	0.0280344
1021.02	0.0282876
1021.15	0.0286673
1021.29	0.0289837
1021.42	0.0274016
1021.56	0.0284141
1021.69	0.0282243
1021.82	0.0288571
1021.96	0.0291102
1022.09	0.0283508
1022.22	0.0279711
1022.36	0.0287305
1022.49	0.0278446
1022.63	0.0274649
1022.76	0.0277813
1022.89	0.0291102
1023.03	0.0279079
1023.16	0.0276547
1023.3	0.0275914
1023.43	0.0286673
1023.56	0.0275914
1023.7	0.0284774
1023.83	0.0275282
1023.96	0.0279079
1024.1	0.027275
1024.23	0.0283508
1024.37	0.0282243
1024.5	0.027718
1024.63	0.0288571
1024.77	0.028161
1024.9	0.0289204
1025.04	0.0280977
1025.17	0.0282876
1025.3	0.0282243
1025.44	0.0282876
1025.57	0.0287305
1025.7	0.0284774
1025.84	0.0275914
1025.97	0.0287938
1026.11	0.0284774
1026.24	0.0278446
1026.37	0.0279711
1026.51	0.0280977
1026.64	0.0280344
1026.78	0.0282243
1026.91	0.0272117
1027.04	0.0286673
1027.18	0.0286673
1027.31	0.0282243
1027.44	0.0292368
1027.58	0.0274649
1027.71	0.0293001
1027.85	0.0284774
1027.98	0.0288571
1028.11	0.0291735
1028.25	0.0282876
1028.38	0.0286673
1028.52	0.0280977
1028.65	0.0280344
1028.78	0.0286673
1028.92	0.0280344
1029.05	0.0282243
1029.18	0.0279711
1029.32	0.0282243
1029.45	0.028604
1029.59	0.0280344
1029.72	0.028161
1029.85	0.0285407
1029.99	0.0277813
1030.12	0.0282243
1030.26	0.0277813
1030.39	0.028604
1030.52	0.0279079
1030.66	0.0275914
1030.79	0.0282243
1030.92	0.0277813
1031.06	0.0273383
1031.19	0.0279711
1031.33	0.0288571
1031.46	0.0278446
1031.59	0.0279711
1031.73	0.0282876
1031.86	0.028161
1031.99	0.0285407
1032.13	0.029047
1032.26	0.0282243
1032.4	0.0294899
1032.53	0.0280344
1032.66	0.027718
1032.8	0.0278446
1032.93	0.0284774
1033.07	0.0279711
1033.2	0.0287938
1033.33	0.0284774
1033.47	0.0282243
1033.6	0.0279711
1033.73	0.0283508
1033.87	0.0289837
1034	0.0284774
1034.14	0.028604
1034.27	0.0276547
1034.4	0.0287305
1034.54	0.0284141
1034.67	0.0279079
1034.81	0.0273383
1034.94	0.0287938
1035.07	0.0285407
1035.21	0.0284774
1035.34	0.0280977
1035.47	0.0277813
1035.61	0.0278446
1035.74	0.0287938
1035.88	0.0278446
1036.01	0.0277813
1036.14	0.0278446
1036.28	0.0275282
1036.41	0.0293001
1036.54	0.0284141
1036.68	0.0274649
1036.81	0.0279711
1036.95	0.0284774
1037.08	0.0282243
1037.21	0.0284774
1037.35	0.0280344
1037.48	0.0291102
1037.62	0.0287305
1037.75	0.0282243
1037.88	0.0279079
1038.02	0.0284141
1038.15	0.0282243
1038.28	0.0295532
1038.42	0.028604
1038.55	0.0284141
1038.69	0.0280344
1038.82	0.0289204
1038.95	0.0279711
1039.09	0.0285407
1039.22	0.0282243
1039.35	0.0286673
1039.49	0.0274016
1039.62	0.0279079
1039.76	0.0293634
1039.89	0.0282876
1040.02	0.0284141
1040.16	0.0274649
1040.29	0.028604
1040.43	0.0279711
1040.56	0.0285407
1040.69	0.0275282
1040.83	0.0274016
1040.96	0.0273383
1041.09	0.0284774
1041.23	0.0279079
1041.36	0.0280977
1041.5	0.0291102
1041.63	0.0278446
1041.76	0.027718
1041.9	0.0277813
1042.03	0.0287305
1042.16	0.0282876
1042.3	0.0274649
1042.43	0.0275282
1042.57	0.0274649
1042.7	0.0285407
1042.83	0.0286673
1042.97	0.0284141
1043.1	0.0280344
1043.23	0.0275914
1043.37	0.0289837
1043.5	0.0278446
1043.64	0.0277813
1043.77	0.0282876
1043.9	0.0283508
1044.04	0.0285407
1044.17	0.028161
1044.31	0.0291102
1044.44	0.0279079
1044.57	0.0284141
1044.71	0.0280344
1044.84	0.0275282
1044.97	0.0285407
1045.11	0.0283508
1045.24	0.028604
1045.38	0.028604
1045.51	0.0282243
1045.64	0.0284141
1045.78	0.0277813
1045.91	0.0286673
1046.04	0.0284141
1046.18	0.028604
1046.31	0.0284774
1046.45	0.0277813
1046.58	0.0283508
1046.71	0.0286673
1046.85	0.028604
1046.98	0.0283508
1047.11	0.0275914
1047.25	0.0279079
1047.38	0.0286673
1047.52	0.0287305
1047.65	0.0289837
1047.78	0.0291735
1047.92	0.0288571
1048.05	0.0285407
1048.18	0.027718
1048.32	0.027718
1048.45	0.0280344
1048.59	0.0280977
1048.72	0.0286673
1048.85	0.0282243
1048.99	0.0279079
1049.12	0.0285407
1049.25	0.0277813
1049.39	0.0279079
1049.52	0.028604
1049.66	0.0279711
1049.79	0.0270852
1049.92	0.0278446
1050.06	0.0278446
1050.19	0.0294267
1050.33	0.0282243
1050.46	0.0293634
1050.59	0.0279079
1050.73	0.0282243
1050.86	0.0289204
1050.99	0.0285407
1051.13	0.0279711
1051.26	0.027718
1051.4	0.0279711
1051.53	0.028161
1051.66	0.028161
1051.8	0.0282876
1051.93	0.0279079
1052.06	0.0275914
1052.2	0.0277813
1052.33	0.0289837
1052.47	0.0287305
1052.6	0.0278446
1052.73	0.0287305
1052.87	0.0279711
1053	0.028604
1053.13	0.0282243
1053.27	0.0283508
1053.4	0.0284141
1053.54	0.029047
1053.67	0.0282243
1053.8	0.0287305
1053.94	0.027718
1054.07	0.0288571
1054.2	0.0279079
1054.34	0.0280344
1054.47	0.0286673
1054.61	0.0289204
1054.74	0.0285407
1054.87	0.0287938
1055.01	0.028604
1055.14	0.0280344
1055.27	0.0282243
1055.41	0.0284141
1055.54	0.0285407
1055.68	0.027718
1055.81	0.028604
1055.94	0.0277813
1056.08	0.0288571
1056.21	0.0286673
1056.34	0.0284774
1056.48	0.0289204
1056.61	0.0284774
1056.75	0.0285407
1056.88	0.0282876
1057.01	0.0282243
1057.15	0.0291735
1057.28	0.0284774
1057.41	0.029047
1057.55	0.0291735
1057.68	0.0289204
1057.82	0.0288571
1057.95	0.0279079
1058.08	0.0289837
1058.22	0.027718
1058.35	0.0276547
1058.48	0.028161
1058.62	0.0282876
1058.75	0.0282243
1058.89	0.0279079
1059.02	0.0280977
1059.15	0.0280344
1059.29	0.0285407
1059.42	0.0282243
1059.55	0.0284141
1059.69	0.0287305
1059.82	0.0285407
1059.96	0.0286673
1060.09	0.0288571
1060.22	0.0280344
1060.36	0.0283508
1060.49	0.0282876
1060.62	0.027718
1060.76	0.0275914
1060.89	0.029047
1061.03	0.0275914
1061.16	0.029047
1061.29	0.0278446
1061.43	0.0286673
1061.56	0.027718
1061.69	0.0291102
1061.83	0.0280977
1061.96	0.0284141
1062.1	0.0279711
1062.23	0.0283508
1062.36	0.0280977
1062.5	0.028604
1062.63	0.028161
1062.76	0.0291735
1062.9	0.0291102
1063.03	0.0284774
1063.17	0.0285407
1063.3	0.0285407
1063.43	0.0280977
1063.57	0.0279079
1063.7	0.0282876
1063.83	0.0271485
1063.97	0.0280977
1064.1	0.0286673
1064.23	0.0294899
1064.37	0.027275
1064.5	0.0283508
1064.64	0.0276547
1064.77	0.0278446
1064.9	0.0275282
1065.04	0.0271485
1065.17	0.0279079
1065.3	0.0272117
1065.44	0.0284774
1065.57	0.0283508
1065.71	0.0279711
1065.84	0.0284141
1065.97	0.0283508
1066.11	0.0276547
1066.24	0.027718
1066.37	0.0286673
1066.51	0.0282243
1066.64	0.0284141
1066.78	0.0286673
1066.91	0.0287305
1067.04	0.0285407
1067.18	0.0284774
1067.31	0.0287938
1067.44	0.027718
1067.58	0.0282243
1067.71	0.0284774
1067.85	0.0286673
1067.98	0.0284141
1068.11	0.0276547
1068.25	0.0283508
1068.38	0.0292368
1068.51	0.0284774
1068.65	0.0282243
1068.78	0.0283508
1068.92	0.0282243
1069.05	0.0274649
1069.18	0.0289204
1069.32	0.027718
1069.45	0.028161
1069.58	0.0282876
1069.72	0.028604
1069.85	0.0285407
1069.98	0.0280344
1070.12	0.0280344
1070.25	0.0279711
1070.39	0.0282876
1070.52	0.0284774
1070.65	0.0280344
1070.79	0.0274649
1070.92	0.0282243
1071.05	0.0280344
1071.19	0.028604
1071.32	0.0275914
1071.46	0.0289837
1071.59	0.0275282
1071.72	0.0289204
1071.86	0.028604
1071.99	0.0282243
1072.12	0.0275914
1072.26	0.0282243
1072.39	0.0279079
1072.53	0.0278446
1072.66	0.027275
1072.79	0.0277813
1072.93	0.0278446
1073.06	0.0282876
1073.19	0.0279711
1073.33	0.0288571
1073.46	0.0286673
1073.59	0.0280344
1073.73	0.0282243
1073.86	0.0284774
1074	0.028161
1074.13	0.0280344
1074.26	0.0283508
1074.4	0.0275914
1074.53	0.0279079
1074.66	0.028604
1074.8	0.0280977
1074.93	0.0271485
1075.07	0.0284141
1075.2	0.0276547
1075.33	0.0282876
1075.47	0.0275914
1075.6	0.0278446
1075.73	0.0280977
1075.87	0.0284774
1076	0.027718
1076.14	0.0274649
1076.27	0.0282243
1076.4	0.0280344
1076.54	0.0280344
1076.67	0.0289837
1076.8	0.0284774
1076.94	0.0282876
1077.07	0.0287305
1077.2	0.0286673
1077.34	0.0293001
1077.47	0.0286673
1077.61	0.0278446
1077.74	0.0279079
1077.87	0.0283508
1078.01	0.028161
1078.14	0.0283508
1078.27	0.0280977
1078.41	0.0277813
1078.54	0.0285407
1078.68	0.0289204
1078.81	0.0282876
1078.94	0.0280344
1079.08	0.0285407
1079.21	0.0283508
1079.34	0.0285407
1079.48	0.028604
1079.61	0.0277813
1079.74	0.0272117
1079.88	0.028161
1080.01	0.0283508
1080.15	0.0284774
1080.28	0.0282876
1080.41	0.0280977
1080.55	0.0276547
1080.68	0.0282243
1080.81	0.0280977
1080.95	0.0279711
1081.08	0.0282243
1081.22	0.0282243
1081.35	0.0274649
1081.48	0.0282243
1081.62	0.0285407
1081.75	0.0283508
1081.88	0.0280344
1082.02	0.0295532
1082.15	0.0277813
1082.28	0.0280344
1082.42	0.0275914
1082.55	0.0276547
1082.69	0.0280977
1082.82	0.0282876
1082.95	0.0280344
1083.09	0.0280344
1083.22	0.0277813
1083.35	0.0280977
1083.49	0.0282876
1083.62	0.0287305
1083.75	0.0282876
1083.89	0.028161
1084.02	0.0284141
1084.16	0.028161
1084.29	0.0279711
1084.42	0.0288571
1084.56	0.0288571
1084.69	0.0275914
1084.82	0.0280977
1084.96	0.0284774
1085.09	0.0284141
1085.23	0.0284141
1085.36	0.027275
1085.49	0.0280977
1085.63	0.0289837
1085.76	0.0276547
1085.89	0.0291102
1086.03	0.0287305
1086.16	0.028161
1086.29	0.0287305
1086.43	0.028604
1086.56	0.0282243
1086.7	0.0282243
1086.83	0.0280977
1086.96	0.0277813
1087.1	0.0277813
1087.23	0.0280977
1087.36	0.0282243
1087.5	0.0280977
1087.63	0.0276547
1087.76	0.0284774
1087.9	0.0282876
1088.03	0.0284141
1088.17	0.0284141
1088.3	0.0282876
1088.43	0.0284141
1088.57	0.0277813
1088.7	0.0289204
1088.83	0.0288571
1088.97	0.0275914
1089.1	0.0282876
1089.24	0.0284774
1089.37	0.0276547
1089.5	0.0286673
1089.64	0.0279711
1089.77	0.028604
1089.9	0.0286673
1090.04	0.0284774
1090.17	0.0279711
1090.3	0.028604
1090.44	0.0287305
1090.57	0.0284141
1090.71	0.0291735
1090.84	0.0278446
1090.97	0.0280977
1091.11	0.0282876
1091.24	0.0280344
1091.37	0.0291735
1091.51	0.0285407
1091.64	0.0293634
1091.77	0.0284141
1091.91	0.0282876
1092.04	0.0278446
1092.18	0.0291102
1092.31	0.0275914
1092.44	0.0289204
1092.58	0.0282243
1092.71	0.0279079
1092.84	0.0289837
1092.98	0.0279711
1093.11	0.0296798
1093.24	0.0286673
1093.38	0.0286673
1093.51	0.0277813
1093.65	0.0287938
1093.78	0.0283508
1093.91	0.0287305
1094.05	0.0282876
1094.18	0.0282243
1094.31	0.0286673
1094.45	0.0275282
1094.58	0.0285407
1094.71	0.0282876
1094.85	0.0294267
1094.98	0.0284774
1095.12	0.0279079
1095.25	0.0295532
1095.38	0.027718
1095.52	0.0287938
1095.65	0.0284141
1095.78	0.0287938
1095.92	0.0289837
1096.05	0.027275
1096.18	0.0283508
1096.32	0.0289837
1096.45	0.0284774
1096.59	0.0289204
1096.72	0.028161
1096.85	0.0277813
1096.99	0.029047
1097.12	0.0277813
1097.25	0.028161
1097.39	0.0284141
1097.52	0.0284774
1097.65	0.0285407
1097.79	0.0289837
1097.92	0.0279079
1098.06	0.028604
1098.19	0.0284141
1098.32	0.0288571
1098.46	0.027718
1098.59	0.0280344
1098.72	0.0282243
1098.86	0.0282876
1098.99	0.0282243
1099.12	0.0284141
1099.26	0.0289837
1099.39	0.0295532
1099.53	0.028604
1099.66	0.0294899
1099.79	0.0279079
1099.93	0.0283508
1100.06	0.0282876
1100.19	0.0288571
1100.33	0.027718
1100.46	0.028604
1100.59	0.0287305
1100.73	0.028161
1100.86	0.0282876
1100.99	0.028161
1101.13	0.0274016
1101.26	0.028161
1101.4	0.0279079
1101.53	0.0289837
1101.66	0.0282876
1101.8	0.0280977
1101.93	0.0276547
1102.06	0.028161
1102.2	0.0279711
1102.33	0.0278446
1102.46	0.0286673
1102.6	0.0284141
1102.73	0.0280977
1102.87	0.0275282
1103	0.0279711
1103.13	0.0289837
1103.27	0.0286673
1103.4	0.0283508
1103.53	0.0279711
1103.67	0.0274016
1103.8	0.0280977
1103.93	0.028604
1104.07	0.0278446
1104.2	0.0280977
1104.34	0.0282243
1104.47	0.0279711
1104.6	0.0293634
1104.74	0.0284141
1104.87	0.0276547
1105	0.028161
1105.14	0.0295532
1105.27	0.0278446
1105.4	0.0280344
1105.54	0.028161
1105.67	0.0273383
1105.8	0.0275914
1105.94	0.0291102
1106.07	0.0283508
1106.21	0.029047
1106.34	0.029047
1106.47	0.0280977
1106.61	0.0287938
1106.74	0.0286673
1106.87	0.0275914
1107.01	0.0277813
1107.14	0.0280977
1107.27	0.0274649
1107.41	0.0284141
1107.54	0.0292368

