Source: Spectrum Viewer

Chart: Pulse Spectrum

Series: 
Wavelength (nm)	S (a.u.)
617.638	0.13745
617.773	0.13776
617.908	0.138691
618.043	0.140863
618.178	0.142724
618.313	0.139311
618.448	0.142724
618.583	0.143965
618.718	0.142414
618.853	0.140863
618.988	0.141793
619.123	0.139932
619.258	0.140552
619.394	0.144276
619.529	0.141173
619.664	0.141483
619.799	0.140552
619.934	0.139311
620.069	0.142724
620.204	0.141793
620.339	0.139621
620.474	0.13807
620.609	0.13838
620.744	0.139621
620.879	0.140552
621.014	0.143345
621.149	0.13838
621.284	0.140863
621.419	0.141483
621.554	0.142104
621.689	0.140552
621.825	0.143034
621.96	0.141173
622.095	0.142724
622.23	0.13838
622.365	0.13776
622.5	0.138691
622.635	0.13745
622.77	0.140552
622.905	0.141793
623.04	0.139001
623.175	0.13807
623.31	0.143965
623.445	0.142724
623.58	0.141173
623.715	0.140552
623.85	0.13838
623.985	0.142414
624.12	0.142104
624.255	0.135588
624.39	0.139311
624.525	0.139932
624.661	0.141483
624.796	0.143965
624.931	0.138691
625.066	0.144586
625.201	0.13776
625.336	0.138691
625.471	0.140242
625.606	0.143345
625.741	0.144276
625.876	0.140863
626.011	0.143655
626.146	0.141173
626.281	0.141173
626.416	0.139311
626.551	0.140242
626.686	0.13776
626.821	0.144896
626.956	0.143965
627.091	0.143345
627.226	0.139932
627.361	0.142104
627.496	0.140863
627.631	0.139932
627.766	0.142104
627.901	0.140242
628.036	0.145827
628.171	0.139001
628.307	0.139621
628.442	0.137139
628.577	0.139932
628.712	0.141173
628.847	0.139311
628.982	0.141793
629.117	0.13807
629.252	0.141173
629.387	0.135898
629.522	0.140863
629.657	0.141483
629.792	0.142414
629.927	0.142104
630.062	0.140863
630.197	0.144276
630.332	0.140863
630.467	0.140863
630.602	0.13807
630.737	0.13807
630.872	0.143965
631.007	0.141793
631.142	0.138691
631.277	0.139621
631.412	0.140863
631.547	0.139311
631.682	0.142414
631.817	0.140863
631.952	0.142724
632.087	0.141483
632.222	0.141173
632.357	0.141793
632.492	0.144276
632.627	0.139932
632.762	0.142414
632.897	0.139932
633.032	0.137139
633.167	0.139311
633.302	0.140242
633.437	0.141793
633.572	0.141483
633.707	0.142724
633.842	0.142104
633.978	0.13745
634.113	0.142414
634.248	0.140863
634.383	0.141793
634.518	0.141793
634.653	0.13838
634.788	0.13838
634.923	0.141173
635.058	0.141173
635.193	0.144586
635.328	0.139001
635.463	0.13745
635.598	0.13776
635.733	0.140863
635.868	0.141483
636.003	0.144276
636.138	0.139621
636.273	0.140863
636.408	0.136519
636.543	0.139932
636.678	0.13838
636.813	0.143034
636.948	0.142414
637.083	0.138691
637.218	0.139932
637.353	0.142104
637.488	0.140552
637.623	0.141483
637.758	0.133726
637.893	0.142104
638.028	0.140863
638.163	0.143655
638.298	0.142724
638.433	0.142104
638.568	0.144276
638.703	0.142724
638.838	0.143034
638.973	0.142104
639.108	0.140552
639.243	0.140242
639.378	0.141483
639.513	0.143965
639.648	0.140863
639.783	0.144896
639.918	0.140552
640.053	0.139932
640.188	0.141793
640.323	0.139001
640.458	0.142104
640.593	0.141483
640.728	0.142414
640.863	0.140552
640.998	0.140863
641.133	0.13745
641.268	0.13838
641.403	0.139621
641.538	0.13838
641.673	0.139311
641.808	0.144276
641.943	0.143034
642.078	0.141173
642.213	0.141793
642.348	0.141173
642.483	0.143034
642.618	0.140863
642.753	0.142724
642.888	0.139932
643.023	0.145827
643.158	0.141173
643.293	0.139621
643.428	0.143034
643.563	0.141483
643.698	0.141793
643.833	0.143034
643.968	0.13807
644.103	0.143965
644.237	0.13745
644.372	0.143034
644.507	0.143965
644.642	0.143034
644.777	0.138691
644.912	0.139311
645.047	0.139001
645.182	0.138691
645.317	0.141173
645.452	0.140863
645.587	0.141793
645.722	0.140552
645.857	0.139311
645.992	0.139001
646.127	0.141483
646.262	0.13838
646.397	0.143345
646.532	0.144896
646.667	0.136829
646.802	0.139311
646.937	0.139001
647.072	0.139621
647.207	0.142414
647.342	0.13745
647.477	0.142414
647.612	0.139621
647.747	0.144586
647.882	0.139932
648.017	0.145206
648.152	0.143034
648.287	0.142724
648.422	0.134657
648.557	0.139311
648.692	0.140863
648.827	0.139311
648.962	0.140242
649.097	0.13807
649.232	0.141173
649.367	0.140552
649.502	0.13776
649.637	0.135278
649.772	0.136209
649.906	0.143655
650.041	0.143345
650.176	0.141483
650.311	0.142104
650.446	0.13807
650.581	0.139932
650.716	0.142414
650.851	0.140552
650.986	0.142724
651.121	0.144586
651.256	0.145517
651.391	0.135278
651.526	0.140242
651.661	0.139932
651.796	0.139001
651.931	0.145517
652.066	0.139621
652.201	0.140552
652.336	0.13838
652.471	0.137139
652.606	0.139001
652.741	0.142104
652.876	0.140552
653.011	0.141173
653.146	0.137139
653.281	0.141173
653.415	0.141793
653.55	0.141173
653.685	0.146758
653.82	0.139621
653.955	0.140863
654.09	0.142104
654.225	0.139932
654.36	0.13838
654.495	0.138691
654.63	0.142724
654.765	0.142104
654.9	0.141793
655.035	0.143034
655.17	0.140863
655.305	0.138691
655.44	0.142724
655.575	0.143345
655.71	0.140552
655.845	0.142414
655.98	0.13776
656.115	0.135278
656.25	0.142724
656.384	0.140863
656.519	0.140863
656.654	0.140242
656.789	0.145206
656.924	0.139311
657.059	0.141173
657.194	0.134657
657.329	0.143034
657.464	0.139932
657.599	0.140242
657.734	0.139621
657.869	0.141483
658.004	0.141173
658.139	0.139001
658.274	0.13776
658.409	0.143655
658.544	0.144276
658.679	0.142104
658.813	0.135588
658.948	0.140863
659.083	0.139311
659.218	0.141173
659.353	0.141483
659.488	0.13776
659.623	0.139311
659.758	0.141173
659.893	0.140863
660.028	0.140242
660.163	0.138691
660.298	0.142724
660.433	0.136829
660.568	0.142104
660.703	0.139311
660.838	0.139621
660.972	0.141483
661.107	0.142414
661.242	0.142414
661.377	0.136209
661.512	0.140242
661.647	0.141483
661.782	0.142104
661.917	0.138691
662.052	0.139311
662.187	0.136519
662.322	0.13745
662.457	0.139311
662.592	0.140242
662.727	0.13807
662.862	0.141483
662.996	0.136209
663.131	0.140863
663.266	0.139932
663.401	0.13807
663.536	0.142724
663.671	0.143345
663.806	0.140863
663.941	0.141173
664.076	0.140863
664.211	0.140863
664.346	0.140552
664.481	0.141793
664.616	0.140242
664.75	0.139311
664.885	0.13776
665.02	0.142724
665.155	0.143034
665.29	0.139001
665.425	0.140863
665.56	0.13745
665.695	0.141173
665.83	0.144276
665.965	0.142104
666.1	0.140863
666.235	0.140863
666.37	0.136519
666.504	0.143034
666.639	0.13776
666.774	0.136829
666.909	0.142414
667.044	0.142414
667.179	0.143034
667.314	0.13776
667.449	0.140552
667.584	0.143345
667.719	0.141483
667.854	0.137139
667.989	0.134657
668.123	0.142724
668.258	0.143034
668.393	0.143655
668.528	0.13807
668.663	0.141483
668.798	0.140863
668.933	0.142724
669.068	0.138691
669.203	0.142104
669.338	0.139311
669.473	0.139621
669.607	0.142104
669.742	0.144896
669.877	0.139932
670.012	0.142414
670.147	0.140242
670.282	0.136519
670.417	0.13745
670.552	0.143345
670.687	0.144276
670.822	0.139932
670.957	0.139311
671.091	0.139311
671.226	0.136519
671.361	0.142104
671.496	0.144896
671.631	0.140863
671.766	0.142414
671.901	0.142104
672.036	0.141173
672.171	0.143034
672.306	0.140552
672.44	0.142104
672.575	0.136519
672.71	0.139311
672.845	0.142104
672.98	0.136829
673.115	0.141483
673.25	0.142414
673.385	0.139621
673.52	0.139932
673.655	0.143034
673.789	0.143034
673.924	0.139311
674.059	0.140552
674.194	0.13838
674.329	0.139001
674.464	0.137139
674.599	0.143034
674.734	0.140242
674.869	0.139001
675.003	0.141483
675.138	0.139932
675.273	0.133726
675.408	0.140863
675.543	0.13838
675.678	0.140863
675.813	0.145206
675.948	0.145827
676.083	0.146758
676.217	0.143345
676.352	0.143034
676.487	0.139932
676.622	0.139621
676.757	0.147378
676.892	0.13776
677.027	0.142724
677.162	0.139932
677.297	0.143655
677.431	0.143655
677.566	0.138691
677.701	0.142414
677.836	0.141173
677.971	0.140242
678.106	0.146137
678.241	0.140863
678.376	0.144276
678.511	0.13807
678.645	0.142104
678.78	0.144276
678.915	0.144276
679.05	0.139932
679.185	0.141173
679.32	0.140552
679.455	0.143345
679.59	0.136519
679.724	0.140242
679.859	0.138691
679.994	0.144276
680.129	0.139311
680.264	0.143345
680.399	0.141793
680.534	0.148309
680.669	0.139001
680.803	0.146137
680.938	0.147378
681.073	0.141173
681.208	0.13838
681.343	0.143655
681.478	0.141173
681.613	0.139001
681.748	0.136209
681.882	0.139932
682.017	0.139001
682.152	0.143034
682.287	0.143034
682.422	0.139621
682.557	0.139621
682.692	0.139621
682.827	0.142104
682.961	0.140863
683.096	0.143034
683.231	0.13838
683.366	0.140863
683.501	0.136829
683.636	0.134347
683.771	0.144586
683.906	0.139621
684.04	0.140863
684.175	0.140863
684.31	0.139932
684.445	0.144276
684.58	0.141483
684.715	0.139001
684.85	0.142724
684.984	0.140863
685.119	0.147378
685.254	0.134967
685.389	0.139932
685.524	0.139621
685.659	0.145206
685.794	0.139001
685.928	0.145206
686.063	0.142104
686.198	0.143345
686.333	0.141793
686.468	0.143345
686.603	0.141793
686.738	0.143345
686.872	0.139001
687.007	0.141173
687.142	0.138691
687.277	0.141793
687.412	0.141793
687.547	0.143034
687.682	0.142104
687.816	0.144586
687.951	0.140552
688.086	0.140863
688.221	0.140552
688.356	0.139001
688.491	0.139621
688.626	0.142724
688.76	0.13838
688.895	0.142104
689.03	0.140552
689.165	0.142414
689.3	0.140863
689.435	0.141173
689.57	0.144896
689.704	0.141173
689.839	0.141173
689.974	0.139311
690.109	0.139621
690.244	0.143345
690.379	0.138691
690.513	0.140863
690.648	0.13838
690.783	0.135588
690.918	0.139621
691.053	0.144586
691.188	0.136829
691.323	0.145517
691.457	0.137139
691.592	0.13745
691.727	0.136519
691.862	0.138691
691.997	0.142104
692.132	0.143034
692.266	0.13807
692.401	0.143965
692.536	0.140552
692.671	0.141173
692.806	0.141793
692.941	0.142724
693.075	0.141793
693.21	0.143655
693.345	0.141483
693.48	0.141173
693.615	0.141173
693.75	0.142724
693.885	0.138691
694.019	0.141793
694.154	0.139001
694.289	0.141793
694.424	0.13838
694.559	0.141483
694.694	0.141793
694.828	0.140552
694.963	0.142724
695.098	0.139001
695.233	0.13807
695.368	0.141173
695.503	0.140863
695.637	0.141793
695.772	0.141173
695.907	0.140863
696.042	0.139621
696.177	0.144276
696.312	0.139311
696.446	0.141173
696.581	0.144276
696.716	0.142414
696.851	0.13776
696.986	0.139311
697.12	0.142724
697.255	0.13838
697.39	0.143655
697.525	0.138691
697.66	0.141483
697.795	0.139621
697.929	0.142724
698.064	0.140552
698.199	0.135278
698.334	0.142104
698.469	0.13776
698.604	0.14924
698.738	0.141173
698.873	0.142724
699.008	0.139932
699.143	0.140863
699.278	0.13745
699.412	0.144896
699.547	0.135588
699.682	0.143655
699.817	0.135588
699.952	0.145827
700.087	0.142104
700.221	0.142724
700.356	0.143965
700.491	0.139001
700.626	0.136829
700.761	0.144896
700.895	0.13807
701.03	0.140863
701.165	0.142724
701.3	0.143034
701.435	0.142104
701.57	0.137139
701.704	0.143034
701.839	0.142724
701.974	0.143034
702.109	0.142104
702.244	0.140863
702.378	0.140242
702.513	0.142414
702.648	0.142414
702.783	0.13807
702.918	0.140863
703.052	0.144276
703.187	0.137139
703.322	0.140242
703.457	0.145206
703.592	0.13776
703.727	0.141173
703.861	0.139311
703.996	0.140552
704.131	0.143965
704.266	0.141483
704.401	0.136209
704.535	0.143345
704.67	0.138691
704.805	0.143345
704.94	0.142724
705.075	0.143034
705.209	0.143345
705.344	0.141483
705.479	0.144276
705.614	0.143655
705.749	0.137139
705.883	0.144276
706.018	0.145517
706.153	0.139001
706.288	0.142724
706.423	0.143965
706.557	0.133106
706.692	0.13807
706.827	0.140242
706.962	0.143034
707.097	0.140552
707.231	0.142104
707.366	0.141793
707.501	0.140552
707.636	0.139311
707.771	0.142104
707.905	0.142724
708.04	0.135898
708.175	0.13838
708.31	0.140242
708.445	0.143345
708.579	0.139932
708.714	0.144896
708.849	0.13838
708.984	0.140552
709.118	0.141173
709.253	0.141793
709.388	0.140242
709.523	0.141173
709.658	0.143345
709.792	0.135898
709.927	0.143034
710.062	0.142414
710.197	0.143345
710.332	0.141483
710.466	0.140552
710.601	0.141483
710.736	0.137139
710.871	0.140242
711.006	0.143965
711.14	0.139001
711.275	0.13838
711.41	0.139311
711.545	0.139001
711.679	0.137139
711.814	0.141793
711.949	0.143965
712.084	0.138691
712.219	0.142104
712.353	0.141173
712.488	0.141483
712.623	0.134657
712.758	0.140242
712.892	0.143034
713.027	0.142414
713.162	0.140863
713.297	0.13807
713.432	0.143345
713.566	0.139001
713.701	0.143655
713.836	0.142414
713.971	0.139311
714.105	0.139001
714.24	0.144276
714.375	0.143034
714.51	0.142414
714.645	0.139001
714.779	0.139621
714.914	0.141173
715.049	0.13745
715.184	0.145517
715.318	0.141173
715.453	0.140552
715.588	0.139001
715.723	0.141483
715.858	0.140242
715.992	0.140863
716.127	0.142104
716.262	0.141173
716.397	0.140863
716.531	0.146447
716.666	0.13745
716.801	0.140863
716.936	0.141483
717.07	0.13838
717.205	0.141793
717.34	0.137139
717.475	0.143034
717.61	0.140242
717.744	0.139932
717.879	0.142414
718.014	0.139932
718.149	0.139932
718.283	0.141483
718.418	0.141173
718.553	0.140552
718.688	0.140552
718.822	0.141173
718.957	0.140863
719.092	0.13776
719.227	0.140863
719.361	0.145206
719.496	0.139932
719.631	0.144276
719.766	0.141793
719.9	0.141483
720.035	0.13838
720.17	0.143965
720.305	0.140863
720.44	0.141793
720.574	0.136519
720.709	0.139001
720.844	0.133726
720.979	0.141483
721.113	0.140242
721.248	0.139311
721.383	0.142414
721.518	0.139932
721.652	0.137139
721.787	0.141793
721.922	0.140552
722.057	0.140552
722.191	0.13807
722.326	0.140242
722.461	0.139311
722.596	0.143965
722.73	0.13838
722.865	0.139621
723	0.13776
723.135	0.142104
723.269	0.142724
723.404	0.139001
723.539	0.135898
723.674	0.138691
723.808	0.13838
723.943	0.144896
724.078	0.141483
724.213	0.141483
724.347	0.142724
724.482	0.143034
724.617	0.141483
724.752	0.141793
724.886	0.142724
725.021	0.141173
725.156	0.141793
725.291	0.13807
725.425	0.141483
725.56	0.141483
725.695	0.141483
725.829	0.135588
725.964	0.142724
726.099	0.140552
726.234	0.140242
726.368	0.135898
726.503	0.138691
726.638	0.139621
726.773	0.142104
726.907	0.137139
727.042	0.139932
727.177	0.139001
727.312	0.13745
727.446	0.143034
727.581	0.139001
727.716	0.143345
727.851	0.141173
727.985	0.142414
728.12	0.139311
728.255	0.140552
728.389	0.141793
728.524	0.144276
728.659	0.141483
728.794	0.141173
728.928	0.139621
729.063	0.143034
729.198	0.136829
729.333	0.140242
729.467	0.140242
729.602	0.139311
729.737	0.137139
729.872	0.142414
730.006	0.13776
730.141	0.143034
730.276	0.138691
730.41	0.142104
730.545	0.141483
730.68	0.142104
730.815	0.13776
730.949	0.139932
731.084	0.142414
731.219	0.142724
731.354	0.139311
731.488	0.144276
731.623	0.139311
731.758	0.139311
731.892	0.144276
732.027	0.145827
732.162	0.144896
732.297	0.141173
732.431	0.13745
732.566	0.142104
732.701	0.141483
732.835	0.143965
732.97	0.139001
733.105	0.13745
733.24	0.13838
733.374	0.136829
733.509	0.138691
733.644	0.142414
733.779	0.138691
733.913	0.140863
734.048	0.147378
734.183	0.142414
734.317	0.142414
734.452	0.141173
734.587	0.139932
734.722	0.143345
734.856	0.142104
734.991	0.144586
735.126	0.13745
735.26	0.140552
735.395	0.141173
735.53	0.142724
735.665	0.141483
735.799	0.146447
735.934	0.141793
736.069	0.139932
736.203	0.144276
736.338	0.140242
736.473	0.13776
736.607	0.138691
736.742	0.141173
736.877	0.139932
737.012	0.143345
737.146	0.139621
737.281	0.139621
737.416	0.13776
737.55	0.140863
737.685	0.139621
737.82	0.140863
737.955	0.142104
738.089	0.140863
738.224	0.145206
738.359	0.139932
738.493	0.143345
738.628	0.142104
738.763	0.143034
738.897	0.142104
739.032	0.144896
739.167	0.143345
739.302	0.139311
739.436	0.141793
739.571	0.141173
739.706	0.140863
739.84	0.141793
739.975	0.142414
740.11	0.140552
740.244	0.137139
740.379	0.146137
740.514	0.142104
740.649	0.142414
740.783	0.141483
740.918	0.13807
741.053	0.141173
741.187	0.13807
741.322	0.144276
741.457	0.133726
741.591	0.141793
741.726	0.142414
741.861	0.143034
741.996	0.141483
742.13	0.13745
742.265	0.139001
742.4	0.138691
742.534	0.142414
742.669	0.139621
742.804	0.140552
742.938	0.144586
743.073	0.139311
743.208	0.141793
743.342	0.136829
743.477	0.143345
743.612	0.142724
743.747	0.143655
743.881	0.141483
744.016	0.142414
744.151	0.142104
744.285	0.142414
744.42	0.141793
744.555	0.13776
744.689	0.139932
744.824	0.140863
744.959	0.143345
745.093	0.140242
745.228	0.142724
745.363	0.143345
745.497	0.141483
745.632	0.139311
745.767	0.142414
745.901	0.139932
746.036	0.142104
746.171	0.134967
746.305	0.140863
746.44	0.141483
746.575	0.140863
746.71	0.143034
746.844	0.139001
746.979	0.139932
747.114	0.13838
747.248	0.136829
747.383	0.139311
747.518	0.141483
747.652	0.143655
747.787	0.139001
747.922	0.143655
748.056	0.140242
748.191	0.138691
748.326	0.141173
748.46	0.143655
748.595	0.145517
748.73	0.138691
748.864	0.144586
748.999	0.140552
749.134	0.13807
749.268	0.141793
749.403	0.136519
749.538	0.13807
749.672	0.140552
749.807	0.144896
749.942	0.141793
750.076	0.147999
750.211	0.140242
750.346	0.141483
750.48	0.143345
750.615	0.146758
750.75	0.139311
750.884	0.142104
751.019	0.142414
751.154	0.139932
751.288	0.140863
751.423	0.13838
751.558	0.141483
751.692	0.13776
751.827	0.140242
751.962	0.139621
752.096	0.139932
752.231	0.136829
752.366	0.139621
752.5	0.139001
752.635	0.144896
752.77	0.140552
752.904	0.139932
753.039	0.142414
753.174	0.141793
753.308	0.142724
753.443	0.147378
753.578	0.141793
753.712	0.138691
753.847	0.138691
753.982	0.139932
754.116	0.140863
754.251	0.144276
754.386	0.135588
754.52	0.141173
754.655	0.137139
754.79	0.13807
754.924	0.13776
755.059	0.145517
755.194	0.140863
755.328	0.140863
755.463	0.139621
755.597	0.140863
755.732	0.142414
755.867	0.140242
756.001	0.143965
756.136	0.139932
756.271	0.142104
756.405	0.139311
756.54	0.143655
756.675	0.143655
756.809	0.143965
756.944	0.140863
757.079	0.13745
757.213	0.147068
757.348	0.139001
757.483	0.139621
757.617	0.142724
757.752	0.141793
757.887	0.143345
758.021	0.139932
758.156	0.143655
758.29	0.135588
758.425	0.142724
758.56	0.143034
758.694	0.143345
758.829	0.136829
758.964	0.142724
759.098	0.139001
759.233	0.140242
759.368	0.141793
759.502	0.139621
759.637	0.139311
759.772	0.144276
759.906	0.142724
760.041	0.139311
760.175	0.142724
760.31	0.140552
760.445	0.140552
760.579	0.138691
760.714	0.135898
760.849	0.139621
760.983	0.140863
761.118	0.143655
761.253	0.141793
761.387	0.140863
761.522	0.141793
761.656	0.13807
761.791	0.139621
761.926	0.140242
762.06	0.139001
762.195	0.13838
762.33	0.145206
762.464	0.139311
762.599	0.142104
762.733	0.13807
762.868	0.141793
763.003	0.141173
763.137	0.137139
763.272	0.141793
763.407	0.143034
763.541	0.138691
763.676	0.140242
763.811	0.143655
763.945	0.146758
764.08	0.145206
764.214	0.145517
764.349	0.141173
764.484	0.139932
764.618	0.142414
764.753	0.141173
764.888	0.139311
765.022	0.144276
765.157	0.140552
765.291	0.142414
765.426	0.142104
765.561	0.142724
765.695	0.141173
765.83	0.13838
765.965	0.140242
766.099	0.141483
766.234	0.141793
766.368	0.139311
766.503	0.138691
766.638	0.141173
766.772	0.13776
766.907	0.139311
767.041	0.144586
767.176	0.140552
767.311	0.143655
767.445	0.140242
767.58	0.140242
767.715	0.141173
767.849	0.140242
767.984	0.139621
768.118	0.140552
768.253	0.142724
768.388	0.143034
768.522	0.140242
768.657	0.140552
768.791	0.13745
768.926	0.142414
769.061	0.141173
769.195	0.136209
769.33	0.142104
769.465	0.139932
769.599	0.143034
769.734	0.142104
769.868	0.142104
770.003	0.140242
770.138	0.140863
770.272	0.140863
770.407	0.13776
770.541	0.141483
770.676	0.142104
770.811	0.142724
770.945	0.142724
771.08	0.141173
771.214	0.140242
771.349	0.142104
771.484	0.139621
771.618	0.140863
771.753	0.136829
771.887	0.140552
772.022	0.13745
772.157	0.143034
772.291	0.13807
772.426	0.146137
772.56	0.140552
772.695	0.141173
772.83	0.140552
772.964	0.138691
773.099	0.139621
773.233	0.139311
773.368	0.13807
773.503	0.140242
773.637	0.139311
773.772	0.144586
773.906	0.138691
774.041	0.143655
774.176	0.139621
774.31	0.140242
774.445	0.143034
774.579	0.144896
774.714	0.145206
774.849	0.137139
774.983	0.139621
775.118	0.143965
775.252	0.142414
775.387	0.142104
775.522	0.142104
775.656	0.141173
775.791	0.139932
775.925	0.140242
776.06	0.140242
776.195	0.143655
776.329	0.142414
776.464	0.142414
776.598	0.141173
776.733	0.137139
776.868	0.142414
777.002	0.13776
777.137	0.145517
777.271	0.142414
777.406	0.136209
777.54	0.140242
777.675	0.142724
777.81	0.136829
777.944	0.141483
778.079	0.13776
778.213	0.135898
778.348	0.140863
778.483	0.143345
778.617	0.142724
778.752	0.143034
778.886	0.139001
779.021	0.139311
779.155	0.142724
779.29	0.145517
779.425	0.142724
779.559	0.139311
779.694	0.143034
779.828	0.136209
779.963	0.139621
780.098	0.141793
780.232	0.141483
780.367	0.144586
780.501	0.140242
780.636	0.142414
780.77	0.142104
780.905	0.13776
781.04	0.140863
781.174	0.135588
781.309	0.13745
781.443	0.139932
781.578	0.139621
781.712	0.141483
781.847	0.142414
781.982	0.142724
782.116	0.142104
782.251	0.145206
782.385	0.144276
782.52	0.13776
782.654	0.140863
782.789	0.141793
782.924	0.147999
783.058	0.142414
783.193	0.141173
783.327	0.143965
783.462	0.140242
783.596	0.140552
783.731	0.143345
783.866	0.141483
784	0.140863
784.135	0.143345
784.269	0.13838
784.404	0.140552
784.538	0.143655
784.673	0.141483
784.808	0.140242
784.942	0.141793
785.077	0.141173
785.211	0.139001
785.346	0.13776
785.48	0.139621
785.615	0.138691
785.75	0.143965
785.884	0.141173
786.019	0.136829
786.153	0.142104
786.288	0.141483
786.422	0.140242
786.557	0.143965
786.691	0.141483
786.826	0.142104
786.961	0.139311
787.095	0.145517
787.23	0.137139
787.364	0.143034
787.499	0.141173
787.633	0.13807
787.768	0.13838
787.902	0.141483
788.037	0.139311
788.172	0.143034
788.306	0.143965
788.441	0.143655
788.575	0.13807
788.71	0.141173
788.844	0.136829
788.979	0.142414
789.113	0.139932
789.248	0.143345
789.383	0.143655
789.517	0.13838
789.652	0.13776
789.786	0.142724
789.921	0.144276
790.055	0.143965
790.19	0.141173
790.324	0.140863
790.459	0.144896
790.594	0.141483
790.728	0.141793
790.863	0.141483
790.997	0.138691
791.132	0.141173
791.266	0.143034
791.401	0.145517
791.535	0.145517
791.67	0.141793
791.804	0.140552
791.939	0.141173
792.074	0.142414
792.208	0.142724
792.343	0.143034
792.477	0.142724
792.612	0.140242
792.746	0.139001
792.881	0.141483
793.015	0.142104
793.15	0.144896
793.284	0.141793
793.419	0.141483
793.553	0.143655
793.688	0.144896
793.823	0.140552
793.957	0.135898
794.092	0.141173
794.226	0.143655
794.361	0.140552
794.495	0.145517
794.63	0.142414
794.764	0.136829
794.899	0.143345
795.033	0.140552
795.168	0.139621
795.302	0.139311
795.437	0.137139
795.572	0.139311
795.706	0.13838
795.841	0.139311
795.975	0.142104
796.11	0.13745
796.244	0.140552
796.379	0.142104
796.513	0.143034
796.648	0.142104
796.782	0.143345
796.917	0.140552
797.051	0.13745
797.186	0.140242
797.32	0.139311
797.455	0.136519
797.589	0.139621
797.724	0.139311
797.859	0.140242
797.993	0.143345
798.128	0.145206
798.262	0.139001
798.397	0.139621
798.531	0.139932
798.666	0.141483
798.8	0.141483
798.935	0.141173
799.069	0.141793
799.204	0.144276
799.338	0.13745
799.473	0.135898
799.607	0.139932
799.742	0.142104
799.876	0.140552
800.011	0.142414
800.145	0.13838
800.28	0.141483
800.414	0.142724
800.549	0.139001
800.683	0.143965
800.818	0.140863
800.953	0.140552
801.087	0.141483
801.222	0.138691
801.356	0.13776
801.491	0.146758
801.625	0.136829
801.76	0.141173
801.894	0.139621
802.029	0.140552
802.163	0.139311
802.298	0.143655
802.432	0.139932
802.567	0.143034
802.701	0.139001
802.836	0.140552
802.97	0.139311
803.105	0.147068
803.239	0.139621
803.374	0.142724
803.508	0.136829
803.643	0.140863
803.777	0.143655
803.912	0.143034
804.046	0.138691
804.181	0.139001
804.315	0.142104
804.45	0.143345
804.584	0.147688
804.719	0.138691
804.853	0.137139
804.988	0.140552
805.122	0.139932
805.257	0.139621
805.391	0.141483
805.526	0.142724
805.66	0.142414
805.795	0.140552
805.929	0.139001
806.064	0.144276
806.198	0.138691
806.333	0.143034
806.467	0.143034
806.602	0.142724
806.736	0.146758
806.871	0.141483
807.005	0.137139
807.14	0.139932
807.274	0.141793
807.409	0.141483
807.543	0.13807
807.678	0.145206
807.812	0.142414
807.947	0.142414
808.081	0.139311
808.216	0.143965
808.35	0.143345
808.485	0.144586
808.619	0.143655
808.754	0.142104
808.888	0.139932
809.023	0.140552
809.157	0.145827
809.292	0.141483
809.426	0.142104
809.561	0.14955
809.695	0.144896
809.83	0.140863
809.964	0.146447
810.099	0.144276
810.233	0.146447
810.368	0.147378
810.502	0.14893
810.637	0.146137
810.771	0.147999
810.906	0.14893
811.04	0.148619
811.175	0.147378
811.309	0.14893
811.444	0.153273
811.578	0.170648
811.713	0.199504
811.847	0.201675
811.982	0.291033
812.116	0.351226
812.251	0.317716
812.385	0.298169
812.519	0.49457
812.654	0.869066
812.788	1
812.923	0.86224
813.057	0.674837
813.192	0.81663
813.326	0.599442
813.461	0.288551
813.595	0.202296
813.73	0.170648
813.864	0.151101
813.999	0.14924
814.133	0.161651
814.268	0.162581
814.402	0.166305
814.537	0.154825
814.671	0.14955
814.806	0.141793
814.94	0.146137
815.075	0.147378
815.209	0.147688
815.344	0.136829
815.478	0.143034
815.612	0.142724
815.747	0.147999
815.881	0.143345
816.016	0.147688
816.15	0.141793
816.285	0.142104
816.419	0.144276
816.554	0.13807
816.688	0.143655
816.823	0.140863
816.957	0.139001
817.092	0.143345
817.226	0.143655
817.361	0.145827
817.495	0.142104
817.63	0.142414
817.764	0.143655
817.898	0.139311
818.033	0.139001
818.167	0.143034
818.302	0.143965
818.436	0.139311
818.571	0.147068
818.705	0.144896
818.84	0.141483
818.974	0.143655
819.109	0.143655
819.243	0.144276
819.378	0.137139
819.512	0.143965
819.646	0.13776
819.781	0.140552
819.915	0.147068
820.05	0.142104
820.184	0.143655
820.319	0.141483
820.453	0.140552
820.588	0.146758
820.722	0.144586
820.857	0.136519
820.991	0.139621
821.126	0.140552
821.26	0.141483
821.394	0.141793
821.529	0.139311
821.663	0.13807
821.798	0.145827
821.932	0.141173
822.067	0.144586
822.201	0.139932
822.336	0.13807
822.47	0.147068
822.605	0.142104
822.739	0.139311
822.873	0.139001
823.008	0.141483
823.142	0.138691
823.277	0.143965
823.411	0.139001
823.546	0.140863
823.68	0.142104
823.815	0.13838
823.949	0.140863
824.083	0.136519
824.218	0.139621
824.352	0.140242
824.487	0.143965
824.621	0.140242
824.756	0.13838
824.89	0.139621
825.025	0.141173
825.159	0.140552
825.293	0.142414
825.428	0.139621
825.562	0.146447
825.697	0.142104
825.831	0.140552
825.966	0.141793
826.1	0.141173
826.235	0.143034
826.369	0.139932
826.503	0.140552
826.638	0.142414
826.772	0.142724
826.907	0.142104
827.041	0.142104
827.176	0.144276
827.31	0.143345
827.445	0.143034
827.579	0.144276
827.713	0.142414
827.848	0.144896
827.982	0.140863
828.117	0.142414
828.251	0.140863
828.386	0.142414
828.52	0.13776
828.654	0.141173
828.789	0.140863
828.923	0.139311
829.058	0.139621
829.192	0.139621
829.327	0.13838
829.461	0.142414
829.596	0.144896
829.73	0.139932
829.864	0.138691
829.999	0.140242
830.133	0.139621
830.268	0.143345
830.402	0.139001
830.537	0.140863
830.671	0.139621
830.805	0.142104
830.94	0.140863
831.074	0.142724
831.209	0.141793
831.343	0.145517
831.478	0.140242
831.612	0.139932
831.746	0.140242
831.881	0.143655
832.015	0.140863
832.15	0.146137
832.284	0.144586
832.418	0.141483
832.553	0.142104
832.687	0.144276
832.822	0.134967
832.956	0.141173
833.091	0.144276
833.225	0.144276
833.359	0.146137
833.494	0.139001
833.628	0.145517
833.763	0.141483
833.897	0.143965
834.032	0.142104
834.166	0.142104
834.3	0.139311
834.435	0.138691
834.569	0.143965
834.704	0.136519
834.838	0.139621
834.972	0.139621
835.107	0.142724
835.241	0.13838
835.376	0.141173
835.51	0.140242
835.645	0.13776
835.779	0.141173
835.913	0.139621
836.048	0.142724
836.182	0.142414
836.317	0.142724
836.451	0.139621
836.585	0.139001
836.72	0.141173
836.854	0.139311
836.989	0.143345
837.123	0.140242
837.257	0.142104
837.392	0.13838
837.526	0.141793
837.661	0.140242
837.795	0.139311
837.929	0.136829
838.064	0.141483
838.198	0.13807
838.333	0.144586
838.467	0.142104
838.602	0.141173
838.736	0.142414
838.87	0.141483
839.005	0.139001
839.139	0.140242
839.274	0.136829
839.408	0.139311
839.542	0.142104
839.677	0.139932
839.811	0.139001
839.946	0.141173
840.08	0.142414
840.214	0.140863
840.349	0.139311
840.483	0.139932
840.618	0.139621
840.752	0.143345
840.886	0.139621
841.021	0.141483
841.155	0.140863
841.29	0.140242
841.424	0.13776
841.558	0.146137
841.693	0.141793
841.827	0.139932
841.961	0.136829
842.096	0.141173
842.23	0.142414
842.365	0.140552
842.499	0.141173
842.633	0.143655
842.768	0.144896
842.902	0.144586
843.037	0.142104
843.171	0.143965
843.305	0.137139
843.44	0.143034
843.574	0.142724
843.709	0.136519
843.843	0.13838
843.977	0.141173
844.112	0.136519
844.246	0.142104
844.381	0.140863
844.515	0.139001
844.649	0.142414
844.784	0.143345
844.918	0.142414
845.052	0.140863
845.187	0.141483
845.321	0.140552
845.456	0.142104
845.59	0.141173
845.724	0.138691
845.859	0.143655
845.993	0.140552
846.128	0.140552
846.262	0.13807
846.396	0.145827
846.531	0.139621
846.665	0.140242
846.799	0.140242
846.934	0.141793
847.068	0.142414
847.203	0.139932
847.337	0.142414
847.471	0.144276
847.606	0.143034
847.74	0.142104
847.874	0.140863
848.009	0.146137
848.143	0.143034
848.278	0.143655
848.412	0.138691
848.546	0.140863
848.681	0.139621
848.815	0.136209
848.949	0.139621
849.084	0.145517
849.218	0.140242
849.353	0.140242
849.487	0.138691
849.621	0.139621
849.756	0.139932
849.89	0.136519
850.024	0.139621
850.159	0.143965
850.293	0.13745
850.428	0.13807
850.562	0.13745
850.696	0.139932
850.831	0.13838
850.965	0.144586
851.099	0.140242
851.234	0.140242
851.368	0.140863
851.502	0.139001
851.637	0.143345
851.771	0.140242
851.906	0.142414
852.04	0.139311
852.174	0.140552
852.309	0.141793
852.443	0.141793
852.577	0.141173
852.712	0.13838
852.846	0.141483
852.98	0.13745
853.115	0.139621
853.249	0.135898
853.384	0.13838
853.518	0.135898
853.652	0.13776
853.787	0.138691
853.921	0.142104
854.055	0.136209
854.19	0.139311
854.324	0.136829
854.458	0.139311
854.593	0.138691
854.727	0.13807
854.861	0.141483
854.996	0.142104
855.13	0.137139
855.265	0.140552
855.399	0.143965
855.533	0.142104
855.668	0.141483
855.802	0.140552
855.936	0.141173
856.071	0.139932
856.205	0.143965
856.339	0.144896
856.474	0.142104
856.608	0.145827
856.742	0.143965
856.877	0.142104
857.011	0.140552
857.145	0.13838
857.28	0.13838
857.414	0.142414
857.549	0.13807
857.683	0.142414
857.817	0.140863
857.952	0.140552
858.086	0.136519
858.22	0.141793
858.355	0.141793
858.489	0.135898
858.623	0.143034
858.758	0.145206
858.892	0.139932
859.026	0.140552
859.161	0.140863
859.295	0.13807
859.429	0.137139
859.564	0.141483
859.698	0.141483
859.832	0.137139
859.967	0.13776
860.101	0.139932
860.235	0.140863
860.37	0.143345
860.504	0.140863
860.638	0.139932
860.773	0.139311
860.907	0.13838
861.041	0.136519
861.176	0.141793
861.31	0.141173
861.444	0.139932
861.579	0.140242
861.713	0.140863
861.847	0.141173
861.982	0.139001
862.116	0.141173
862.25	0.142104
862.385	0.141483
862.519	0.141173
862.653	0.139621
862.788	0.141793
862.922	0.140552
863.056	0.13807
863.191	0.138691
863.325	0.143965
863.459	0.143034
863.594	0.142414
863.728	0.139001
863.862	0.141173
863.997	0.140552
864.131	0.145517
864.265	0.13776
864.4	0.142104
864.534	0.142104
864.668	0.139311
864.803	0.140242
864.937	0.140863
865.071	0.139311
865.206	0.139932
865.34	0.139001
865.474	0.139311
865.609	0.136209
865.743	0.140242
865.877	0.13838
866.012	0.138691
866.146	0.140863
866.28	0.140552
866.415	0.142104
866.549	0.142104
866.683	0.140863
866.818	0.145827
866.952	0.142104
867.086	0.140242
867.221	0.141483
867.355	0.13838
867.489	0.147378
867.623	0.141793
867.758	0.141483
867.892	0.142724
868.026	0.136829
868.161	0.140242
868.295	0.137139
868.429	0.143034
868.564	0.142414
868.698	0.138691
868.832	0.142724
868.967	0.142724
869.101	0.13838
869.235	0.140552
869.37	0.135898
869.504	0.13745
869.638	0.139311
869.773	0.146137
869.907	0.140863
870.041	0.140552
870.175	0.13838
870.31	0.142104
870.444	0.13838
870.578	0.139311
870.713	0.13838
870.847	0.142104
870.981	0.139932
871.116	0.140863
871.25	0.143965
871.384	0.141173
871.519	0.140552
871.653	0.141483
871.787	0.136519
871.921	0.139932
872.056	0.143034
872.19	0.13745
872.324	0.141173
872.459	0.142414
872.593	0.139001
872.727	0.142414
872.862	0.13807
872.996	0.139621
873.13	0.146137
873.264	0.141793
873.399	0.143034
873.533	0.143345
873.667	0.141483
873.802	0.139932
873.936	0.139311
874.07	0.142414
874.205	0.138691
874.339	0.13807
874.473	0.140242
874.607	0.139621
874.742	0.143965
874.876	0.136519
875.01	0.141173
875.145	0.139621
875.279	0.138691
875.413	0.143345
875.548	0.139621
875.682	0.141173
875.816	0.140242
875.95	0.142104
876.085	0.143965
876.219	0.141173
876.353	0.142104
876.488	0.143345
876.622	0.136829
876.756	0.145206
876.89	0.13776
877.025	0.140242
877.159	0.136829
877.293	0.138691
877.428	0.141793
877.562	0.140552
877.696	0.137139
877.83	0.13776
877.965	0.142414
878.099	0.139932
878.233	0.142104
878.368	0.139001
878.502	0.143345
878.636	0.139001
878.77	0.136519
878.905	0.13838
879.039	0.139932
879.173	0.139621
879.308	0.139001
879.442	0.141793
879.576	0.136209
879.71	0.143345
879.845	0.139621
879.979	0.141793
880.113	0.138691
880.248	0.140552
880.382	0.145206
880.516	0.13745
880.65	0.13745
880.785	0.140863
880.919	0.135278
881.053	0.138691
881.188	0.139001
881.322	0.13776
881.456	0.139311
881.59	0.139311
881.725	0.143655
881.859	0.143965
881.993	0.142414
882.127	0.139311
882.262	0.13776
882.396	0.135898
882.53	0.142724
882.665	0.144276
882.799	0.142724
882.933	0.139621
883.067	0.142414
883.202	0.139932
883.336	0.13776
883.47	0.143345
883.604	0.135898
883.739	0.143655
883.873	0.145206
884.007	0.140552
884.142	0.140552
884.276	0.139001
884.41	0.140863
884.544	0.142104
884.679	0.138691
884.813	0.142414
884.947	0.143034
885.081	0.143345
885.216	0.142724
885.35	0.13745
885.484	0.140863
885.618	0.142414
885.753	0.139311
885.887	0.141483
886.021	0.140552
886.155	0.141483
886.29	0.144896
886.424	0.13776
886.558	0.140552
886.693	0.140863
886.827	0.140552
886.961	0.13807
887.095	0.139932
887.23	0.141173
887.364	0.140242
887.498	0.138691
887.632	0.142414
887.767	0.139621
887.901	0.136209
888.035	0.142724
888.169	0.139311
888.304	0.139311
888.438	0.144896
888.572	0.13745
888.706	0.143034
888.841	0.139932
888.975	0.145517
889.109	0.141483
889.243	0.142414
889.378	0.142724
889.512	0.141483
889.646	0.13838
889.78	0.136209
889.915	0.144896
890.049	0.13776
890.183	0.13838
890.317	0.140552
890.452	0.139001
890.586	0.139932
890.72	0.140242
890.854	0.142414
890.989	0.141793
891.123	0.139932
891.257	0.141173
891.391	0.140863
891.526	0.141793
891.66	0.13838
891.794	0.141483
891.928	0.13838
892.063	0.135278
892.197	0.135278
892.331	0.140552
892.465	0.140552
892.6	0.139001
892.734	0.141793
892.868	0.141173
893.002	0.142724
893.137	0.137139
893.271	0.144586
893.405	0.140242
893.539	0.140552
893.674	0.141793
893.808	0.146137
893.942	0.13838
894.076	0.141793
894.21	0.141173
894.345	0.140242
894.479	0.143034
894.613	0.144586
894.747	0.13745
894.882	0.140863
895.016	0.141483
895.15	0.139932
895.284	0.137139
895.419	0.137139
895.553	0.145827
895.687	0.138691
895.821	0.142104
895.956	0.142104
896.09	0.140552
896.224	0.13776
896.358	0.139621
896.492	0.146137
896.627	0.141793
896.761	0.146758
896.895	0.140552
897.029	0.142724
897.164	0.143345
897.298	0.139001
897.432	0.134347
897.566	0.143655
897.701	0.141173
897.835	0.141483
897.969	0.140863
898.103	0.143034
898.237	0.139621
898.372	0.138691
898.506	0.136519
898.64	0.140863
898.774	0.13745
898.909	0.140863
899.043	0.140552
899.177	0.138691
899.311	0.144276
899.445	0.13745
899.58	0.138691
899.714	0.142724
899.848	0.141173
899.982	0.13776
900.117	0.13745
900.251	0.139621
900.385	0.139621
900.519	0.140863
900.653	0.140242
900.788	0.141173
900.922	0.143034
901.056	0.139932
901.19	0.145517
901.325	0.145827
901.459	0.139621
901.593	0.142104
901.727	0.139932
901.861	0.141173
901.996	0.139311
902.13	0.139621
902.264	0.139932
902.398	0.143034
902.532	0.141483
902.667	0.142724
902.801	0.145827
902.935	0.136519
903.069	0.142104
903.204	0.139621
903.338	0.145517
903.472	0.143655
903.606	0.140552
903.74	0.140863
903.875	0.140552
904.009	0.139311
904.143	0.140242
904.277	0.13838
904.411	0.138691
904.546	0.139621
904.68	0.136519
904.814	0.143345
904.948	0.13745
905.082	0.141173
905.217	0.139932
905.351	0.139311
905.485	0.140242
905.619	0.145827
905.753	0.141793
905.888	0.141483
906.022	0.142414
906.156	0.141483
906.29	0.142414
906.424	0.139621
906.559	0.143965
906.693	0.13838
906.827	0.143034
906.961	0.136209
907.095	0.13838
907.23	0.140242
907.364	0.144276
907.498	0.142414
907.632	0.139621
907.766	0.145206
907.901	0.142724
908.035	0.139932
908.169	0.143345
908.303	0.138691
908.437	0.140242
908.572	0.13776
908.706	0.142414
908.84	0.139621
908.974	0.140863
909.108	0.139311
909.243	0.144586
909.377	0.142414
909.511	0.139001
909.645	0.135588
909.779	0.140242
909.914	0.139621
910.048	0.141483
910.182	0.136519
910.316	0.141483
910.45	0.139311
910.585	0.141793
910.719	0.143034
910.853	0.141173
910.987	0.138691
911.121	0.142414
911.255	0.139621
911.39	0.139621
911.524	0.140552
911.658	0.139001
911.792	0.143034
911.926	0.145206
912.061	0.136829
912.195	0.144586
912.329	0.13807
912.463	0.13807
912.597	0.134657
912.732	0.139621
912.866	0.139001
913	0.139932
913.134	0.140863
913.268	0.141173
913.402	0.140552
913.537	0.141483
913.671	0.141793
913.805	0.13838
913.939	0.140552
914.073	0.140552
914.208	0.141173
914.342	0.138691
914.476	0.13807
914.61	0.142104
914.744	0.142104
914.878	0.143345
915.013	0.140863
915.147	0.138691
915.281	0.141483
915.415	0.143034
915.549	0.139001
915.683	0.13745
915.818	0.141173
915.952	0.141483
916.086	0.140863
916.22	0.138691
916.354	0.143034
916.488	0.13776
916.623	0.140242
916.757	0.141173
916.891	0.140552
917.025	0.141173
917.159	0.13745
917.293	0.145517
917.428	0.13745
917.562	0.145517
917.696	0.140552
917.83	0.142414
917.964	0.139311
918.098	0.137139
918.233	0.144276
918.367	0.142414
918.501	0.13776
918.635	0.13807
918.769	0.13745
918.903	0.143345
919.038	0.140242
919.172	0.13838
919.306	0.13807
919.44	0.13745
919.574	0.141483
919.708	0.143965
919.843	0.140863
919.977	0.144586
920.111	0.138691
920.245	0.141483
920.379	0.138691
920.513	0.140552
920.648	0.140863
920.782	0.139932
920.916	0.143655
921.05	0.140863
921.184	0.142104
921.318	0.143345
921.453	0.143345
921.587	0.140242
921.721	0.143965
921.855	0.142724
921.989	0.139932
922.123	0.141483
922.257	0.13776
922.392	0.135588
922.526	0.143655
922.66	0.143965
922.794	0.141793
922.928	0.140552
923.062	0.13776
923.197	0.139932
923.331	0.140552
923.465	0.142104
923.599	0.141173
923.733	0.139001
923.867	0.139311
924.001	0.138691
924.136	0.143034
924.27	0.140863
924.404	0.139932
924.538	0.141483
924.672	0.142724
924.806	0.141173
924.94	0.141793
925.075	0.140242
925.209	0.143345
925.343	0.140552
925.477	0.135278
925.611	0.13776
925.745	0.142414
925.879	0.145517
926.014	0.143965
926.148	0.144896
926.282	0.139001
926.416	0.141483
926.55	0.138691
926.684	0.140863
926.818	0.140552
926.953	0.13838
927.087	0.13807
927.221	0.141173
927.355	0.140863
927.489	0.141173
927.623	0.143034
927.757	0.140242
927.892	0.143034
928.026	0.140863
928.16	0.141793
928.294	0.135588
928.428	0.141483
928.562	0.137139
928.696	0.141483
928.831	0.139932
928.965	0.144896
929.099	0.138691
929.233	0.139621
929.367	0.140552
929.501	0.13776
929.635	0.141483
929.769	0.140863
929.904	0.141483
930.038	0.13745
930.172	0.141793
930.306	0.139001
930.44	0.139932
930.574	0.135588
930.708	0.138691
930.843	0.140242
930.977	0.142724
931.111	0.139621
931.245	0.141793
931.379	0.141173
931.513	0.138691
931.647	0.138691
931.781	0.138691
931.916	0.13807
932.05	0.142414
932.184	0.139001
932.318	0.139621
932.452	0.142104
932.586	0.139621
932.72	0.13807
932.854	0.142104
932.989	0.139621
933.123	0.13807
933.257	0.142724
933.391	0.141483
933.525	0.139001
933.659	0.13776
933.793	0.139621
933.927	0.140863
934.061	0.144896
934.196	0.139001
934.33	0.13745
934.464	0.134967
934.598	0.144276
934.732	0.139932
934.866	0.141173
935	0.13807
935.134	0.140242
935.269	0.142414
935.403	0.142724
935.537	0.139001
935.671	0.140863
935.805	0.135898
935.939	0.140863
936.073	0.139932
936.207	0.141793
936.341	0.140863
936.476	0.139311
936.61	0.142414
936.744	0.140242
936.878	0.141173
937.012	0.140552
937.146	0.139311
937.28	0.13838
937.414	0.139001
937.548	0.138691
937.683	0.140552
937.817	0.136519
937.951	0.144276
938.085	0.140552
938.219	0.141173
938.353	0.139621
938.487	0.143034
938.621	0.140863
938.755	0.13838
938.889	0.13745
939.024	0.135588
939.158	0.13838
939.292	0.140863
939.426	0.139621
939.56	0.140552
939.694	0.139311
939.828	0.142724
939.962	0.139932
940.096	0.143034
940.231	0.136209
940.365	0.143655
940.499	0.13807
940.633	0.13838
940.767	0.143034
940.901	0.141483
941.035	0.136209
941.169	0.143034
941.303	0.13776
941.437	0.139932
941.571	0.142724
941.706	0.144896
941.84	0.143345
941.974	0.145206
942.108	0.142104
942.242	0.139001
942.376	0.139621
942.51	0.139311
942.644	0.141483
942.778	0.141483
942.912	0.139621
943.047	0.139621
943.181	0.141173
943.315	0.142104
943.449	0.137139
943.583	0.13807
943.717	0.140863
943.851	0.141173
943.985	0.135588
944.119	0.140242
944.253	0.140863
944.387	0.13838
944.522	0.13838
944.656	0.142724
944.79	0.140863
944.924	0.144586
945.058	0.144896
945.192	0.145206
945.326	0.13776
945.46	0.147068
945.594	0.139311
945.728	0.142724
945.862	0.140242
945.996	0.139932
946.131	0.13745
946.265	0.139932
946.399	0.134967
946.533	0.142414
946.667	0.139001
946.801	0.139311
946.935	0.138691
947.069	0.13807
947.203	0.136519
947.337	0.139001
947.471	0.143965
947.605	0.139001
947.739	0.140863
947.874	0.142724
948.008	0.139001
948.142	0.144276
948.276	0.139932
948.41	0.144586
948.544	0.140863
948.678	0.142724
948.812	0.139001
948.946	0.13807
949.08	0.134037
949.214	0.138691
949.348	0.13838
949.482	0.143965
949.617	0.13807
949.751	0.139311
949.885	0.141483
950.019	0.140552
950.153	0.143034
950.287	0.136829
950.421	0.137139
950.555	0.136519
950.689	0.139001
950.823	0.141483
950.957	0.13838
951.091	0.143034
951.225	0.142724
951.359	0.143034
951.493	0.13838
951.628	0.139001
951.762	0.13838
951.896	0.143034
952.03	0.144586
952.164	0.139621
952.298	0.142104
952.432	0.140863
952.566	0.142414
952.7	0.141173
952.834	0.144276
952.968	0.141483
953.102	0.13838
953.236	0.13776
953.37	0.140863
953.504	0.139001
953.639	0.143345
953.773	0.143034
953.907	0.142724
954.041	0.139621
954.175	0.143034
954.309	0.139001
954.443	0.143655
954.577	0.139932
954.711	0.139932
954.845	0.140242
954.979	0.142414
955.113	0.13838
955.247	0.141483
955.381	0.139621
955.515	0.140552
955.649	0.136209
955.783	0.143034
955.917	0.141483
956.052	0.13807
956.186	0.146137
956.32	0.134967
956.454	0.13807
956.588	0.139932
956.722	0.145206
956.856	0.135278
956.99	0.140552
957.124	0.139001
957.258	0.145517
957.392	0.142414
957.526	0.13776
957.66	0.142414
957.794	0.136519
957.928	0.13838
958.062	0.144586
958.196	0.141793
958.33	0.148309
958.464	0.145206
958.598	0.13807
958.733	0.142104
958.867	0.139001
959.001	0.136519
959.135	0.139001
959.269	0.139311
959.403	0.141173
959.537	0.139311
959.671	0.13838
959.805	0.141483
959.939	0.139001
960.073	0.13776
960.207	0.138691
960.341	0.143345
960.475	0.143034
960.609	0.13838
960.743	0.139932
960.877	0.13807
961.011	0.140863
961.145	0.141173
961.279	0.139621
961.413	0.142104
961.547	0.141793
961.681	0.144586
961.815	0.139621
961.949	0.138691
962.083	0.143655
962.218	0.144586
962.352	0.142724
962.486	0.142724
962.62	0.141483
962.754	0.133726
962.888	0.142724
963.022	0.135898
963.156	0.143034
963.29	0.140863
963.424	0.139311
963.558	0.143034
963.692	0.140863
963.826	0.144896
963.96	0.143034
964.094	0.143345
964.228	0.140552
964.362	0.142414
964.496	0.142104
964.63	0.141793
964.764	0.137139
964.898	0.140242
965.032	0.139621
965.166	0.141483
965.3	0.143965
965.434	0.140242
965.568	0.145206
965.702	0.141483
965.836	0.136829
965.97	0.139621
966.104	0.138691
966.238	0.143034
966.372	0.141793
966.506	0.141793
966.64	0.13838
966.774	0.138691
966.908	0.143345
967.043	0.13745
967.177	0.139621
967.311	0.13745
967.445	0.141793
967.579	0.139932
967.713	0.143034
967.847	0.136829
967.981	0.139311
968.115	0.136209
968.249	0.139932
968.383	0.13776
968.517	0.139001
968.651	0.142414
968.785	0.13776
968.919	0.140863
969.053	0.139621
969.187	0.13838
969.321	0.140552
969.455	0.140552
969.589	0.143965
969.723	0.143655
969.857	0.142104
969.991	0.140242
970.125	0.139621
970.259	0.139001
970.393	0.137139
970.527	0.13838
970.661	0.138691
970.795	0.139932
970.929	0.139311
971.063	0.139932
971.197	0.13745
971.331	0.13745
971.465	0.140863
971.599	0.138691
971.733	0.143655
971.867	0.144896
972.001	0.139932
972.135	0.141173
972.269	0.143655
972.403	0.139311
972.537	0.143034
972.671	0.142414
972.805	0.141793
972.939	0.140242
973.073	0.142414
973.207	0.139621
973.341	0.141173
973.475	0.136209
973.609	0.13745
973.743	0.141173
973.877	0.140552
974.011	0.144896
974.145	0.140242
974.279	0.141483
974.413	0.138691
974.547	0.142104
974.681	0.142414
974.815	0.140552
974.949	0.144276
975.083	0.13838
975.217	0.13838
975.351	0.141173
975.485	0.140242
975.619	0.137139
975.753	0.141793
975.887	0.141793
976.021	0.141173
976.155	0.139621
976.289	0.141483
976.423	0.138691
976.557	0.143655
976.691	0.142104
976.825	0.142414
976.959	0.139621
977.093	0.141793
977.227	0.143034
977.361	0.139932
977.495	0.140242
977.629	0.136829
977.763	0.143345
977.897	0.140242
978.031	0.137139
978.165	0.141793
978.299	0.139311
978.433	0.142724
978.567	0.142414
978.701	0.141793
978.835	0.13776
978.969	0.13807
979.103	0.13807
979.237	0.143034
979.371	0.140242
979.505	0.140863
979.639	0.135898
979.773	0.141793
979.907	0.142414
980.041	0.139001
980.175	0.139311
980.308	0.140863
980.442	0.143345
980.576	0.140552
980.71	0.139001
980.844	0.139311
980.978	0.141483
981.112	0.140552
981.246	0.13838
981.38	0.137139
981.514	0.139001
981.648	0.143034
981.782	0.142414
981.916	0.141483
982.05	0.140863
982.184	0.139621
982.318	0.141173
982.452	0.143034
982.586	0.141793
982.72	0.143345
982.854	0.141173
982.988	0.139932
983.122	0.142104
983.256	0.141173
983.39	0.142104
983.524	0.142104
983.658	0.140552
983.792	0.139932
983.926	0.136519
984.06	0.141793
984.194	0.139001
984.328	0.135898
984.462	0.13745
984.596	0.140242
984.73	0.143034
984.864	0.13745
984.998	0.140552
985.132	0.142724
985.265	0.139001
985.399	0.141173
985.533	0.137139
985.667	0.141483
985.801	0.141483
985.935	0.139932
986.069	0.140863
986.203	0.13807
986.337	0.139001
986.471	0.139311
986.605	0.141793
986.739	0.140863
986.873	0.136829
987.007	0.144276
987.141	0.141793
987.275	0.143655
987.409	0.144586
987.543	0.140552
987.677	0.139001
987.811	0.142724
987.945	0.145206
988.079	0.135898
988.213	0.142414
988.347	0.142724
988.481	0.139932
988.614	0.142414
988.748	0.137139
988.882	0.139001
989.016	0.144276
989.15	0.140863
989.284	0.141483
989.418	0.143034
989.552	0.137139
989.686	0.142104
989.82	0.140552
989.954	0.141793
990.088	0.139932
990.222	0.142724
990.356	0.139311
990.49	0.143965
990.624	0.139932
990.758	0.138691
990.892	0.137139
991.026	0.146137
991.16	0.142414
991.294	0.141483
991.427	0.13776
991.561	0.143345
991.695	0.13745
991.829	0.142724
991.963	0.139932
992.097	0.145827
992.231	0.140552
992.365	0.141173
992.499	0.136829
992.633	0.140552
992.767	0.141483
992.901	0.144276
993.035	0.142414
993.169	0.143345
993.303	0.139001
993.437	0.139621
993.571	0.143345
993.704	0.139001
993.838	0.138691
993.972	0.137139
994.106	0.143965
994.24	0.143345
994.374	0.140552
994.508	0.140863
994.642	0.13807
994.776	0.143655
994.91	0.143965
995.044	0.139621
995.178	0.136519
995.312	0.141173
995.446	0.139001
995.58	0.143034
995.714	0.13807
995.847	0.137139
995.981	0.140242
996.115	0.13838
996.249	0.13745
996.383	0.140242
996.517	0.13838
996.651	0.143345
996.785	0.146137
996.919	0.141483
997.053	0.142104
997.187	0.13807
997.321	0.141793
997.455	0.141483
997.589	0.141173
997.722	0.142414
997.856	0.140242
997.99	0.141173
998.124	0.140552
998.258	0.144276
998.392	0.139621
998.526	0.142104
998.66	0.138691
998.794	0.139001
998.928	0.139311
999.062	0.143655
999.196	0.134967
999.33	0.141483
999.464	0.143965
999.597	0.140863
999.731	0.136519
999.865	0.142724
999.999	0.138691
1000.13	0.136209
1000.27	0.138691
1000.4	0.140552
1000.53	0.140242
1000.67	0.140863
1000.8	0.144586
1000.94	0.140863
1001.07	0.139001
1001.2	0.143345
1001.34	0.140242
1001.47	0.142724
1001.61	0.137139
1001.74	0.139932
1001.87	0.143655
1002.01	0.143345
1002.14	0.139932
1002.28	0.141173
1002.41	0.141173
1002.54	0.139932
1002.68	0.142104
1002.81	0.139001
1002.95	0.140552
1003.08	0.140552
1003.21	0.140242
1003.35	0.14924
1003.48	0.141483
1003.61	0.13745
1003.75	0.139621
1003.88	0.141173
1004.02	0.142724
1004.15	0.139932
1004.28	0.141483
1004.42	0.140863
1004.55	0.140552
1004.69	0.140552
1004.82	0.141793
1004.95	0.141483
1005.09	0.143965
1005.22	0.137139
1005.36	0.139621
1005.49	0.142104
1005.62	0.139932
1005.76	0.138691
1005.89	0.140863
1006.03	0.139932
1006.16	0.142104
1006.29	0.141793
1006.43	0.139311
1006.56	0.139932
1006.69	0.139932
1006.83	0.142414
1006.96	0.142414
1007.1	0.142104
1007.23	0.141483
1007.36	0.141793
1007.5	0.140552
1007.63	0.13745
1007.77	0.141793
1007.9	0.147999
1008.03	0.137139
1008.17	0.140242
1008.3	0.143345
1008.44	0.138691
1008.57	0.145206
1008.7	0.140863
1008.84	0.140863
1008.97	0.142414
1009.1	0.142724
1009.24	0.142104
1009.37	0.141793
1009.51	0.143345
1009.64	0.13745
1009.77	0.144586
1009.91	0.141793
1010.04	0.139001
1010.18	0.139621
1010.31	0.140242
1010.44	0.142724
1010.58	0.143655
1010.71	0.141173
1010.85	0.140242
1010.98	0.136519
1011.11	0.142104
1011.25	0.144586
1011.38	0.139932
1011.51	0.142724
1011.65	0.141483
1011.78	0.139621
1011.92	0.142414
1012.05	0.143965
1012.18	0.140242
1012.32	0.143655
1012.45	0.141793
1012.59	0.141173
1012.72	0.13838
1012.85	0.13838
1012.99	0.139311
1013.12	0.141793
1013.26	0.139001
1013.39	0.143655
1013.52	0.142104
1013.66	0.13745
1013.79	0.141173
1013.92	0.136519
1014.06	0.143034
1014.19	0.139001
1014.33	0.146758
1014.46	0.134657
1014.59	0.143034
1014.73	0.136829
1014.86	0.145517
1015	0.139621
1015.13	0.140552
1015.26	0.143655
1015.4	0.142414
1015.53	0.140242
1015.67	0.143655
1015.8	0.13838
1015.93	0.143965
1016.07	0.138691
1016.2	0.143345
1016.33	0.139932
1016.47	0.143965
1016.6	0.146137
1016.74	0.13776
1016.87	0.140552
1017	0.140863
1017.14	0.136519
1017.27	0.143345
1017.41	0.139311
1017.54	0.139311
1017.67	0.139001
1017.81	0.143345
1017.94	0.139932
1018.07	0.144896
1018.21	0.135588
1018.34	0.142104
1018.48	0.13776
1018.61	0.140863
1018.74	0.136209
1018.88	0.140552
1019.01	0.140863
1019.15	0.139001
1019.28	0.140242
1019.41	0.139621
1019.55	0.140242
1019.68	0.140552
1019.82	0.142414
1019.95	0.140242
1020.08	0.139311
1020.22	0.136519
1020.35	0.136209
1020.48	0.143655
1020.62	0.138691
1020.75	0.138691
1020.89	0.13807
1021.02	0.140552
1021.15	0.142104
1021.29	0.144276
1021.42	0.139932
1021.56	0.140552
1021.69	0.137139
1021.82	0.141793
1021.96	0.139001
1022.09	0.143965
1022.22	0.13807
1022.36	0.13838
1022.49	0.139621
1022.63	0.140863
1022.76	0.13807
1022.89	0.141483
1023.03	0.137139
1023.16	0.141173
1023.3	0.142414
1023.43	0.144586
1023.56	0.139932
1023.7	0.13807
1023.83	0.137139
1023.96	0.140242
1024.1	0.141173
1024.23	0.136829
1024.37	0.143345
1024.5	0.13776
1024.63	0.145827
1024.77	0.142414
1024.9	0.140242
1025.04	0.139932
1025.17	0.137139
1025.3	0.143965
1025.44	0.139932
1025.57	0.141173
1025.7	0.141793
1025.84	0.142414
1025.97	0.141173
1026.11	0.13745
1026.24	0.138691
1026.37	0.143655
1026.51	0.140863
1026.64	0.141793
1026.78	0.137139
1026.91	0.143345
1027.04	0.139621
1027.18	0.141793
1027.31	0.142724
1027.44	0.141483
1027.58	0.140863
1027.71	0.139932
1027.85	0.140242
1027.98	0.13807
1028.11	0.138691
1028.25	0.140242
1028.38	0.143345
1028.52	0.140552
1028.65	0.139932
1028.78	0.141483
1028.92	0.142104
1029.05	0.141173
1029.18	0.13838
1029.32	0.139311
1029.45	0.141173
1029.59	0.141483
1029.72	0.139932
1029.85	0.139001
1029.99	0.139311
1030.12	0.140242
1030.26	0.139311
1030.39	0.135898
1030.52	0.140552
1030.66	0.140863
1030.79	0.139001
1030.92	0.142414
1031.06	0.137139
1031.19	0.13807
1031.33	0.139932
1031.46	0.141793
1031.59	0.138691
1031.73	0.144896
1031.86	0.146137
1031.99	0.13807
1032.13	0.139932
1032.26	0.13838
1032.4	0.139621
1032.53	0.141793
1032.66	0.140552
1032.8	0.140552
1032.93	0.140242
1033.07	0.140552
1033.2	0.140242
1033.33	0.140552
1033.47	0.139932
1033.6	0.139311
1033.73	0.141173
1033.87	0.138691
1034	0.139311
1034.14	0.13838
1034.27	0.140552
1034.4	0.143034
1034.54	0.136829
1034.67	0.142414
1034.81	0.142414
1034.94	0.147068
1035.07	0.13807
1035.21	0.142104
1035.34	0.143965
1035.47	0.13838
1035.61	0.145206
1035.74	0.140863
1035.88	0.143655
1036.01	0.142414
1036.14	0.138691
1036.28	0.136829
1036.41	0.142724
1036.54	0.140863
1036.68	0.142724
1036.81	0.144896
1036.95	0.13807
1037.08	0.141483
1037.21	0.13745
1037.35	0.139311
1037.48	0.13807
1037.62	0.143655
1037.75	0.139621
1037.88	0.139932
1038.02	0.134657
1038.15	0.140863
1038.28	0.135278
1038.42	0.13807
1038.55	0.13807
1038.69	0.139932
1038.82	0.136209
1038.95	0.139621
1039.09	0.140242
1039.22	0.135588
1039.35	0.142104
1039.49	0.144276
1039.62	0.144276
1039.76	0.140863
1039.89	0.140242
1040.02	0.144586
1040.16	0.140863
1040.29	0.140242
1040.43	0.140863
1040.56	0.139621
1040.69	0.140552
1040.83	0.142414
1040.96	0.140552
1041.09	0.139311
1041.23	0.141173
1041.36	0.143655
1041.5	0.143965
1041.63	0.141793
1041.76	0.142724
1041.9	0.140242
1042.03	0.136209
1042.16	0.139932
1042.3	0.13838
1042.43	0.13838
1042.57	0.13838
1042.7	0.143034
1042.83	0.141173
1042.97	0.142104
1043.1	0.139311
1043.23	0.143965
1043.37	0.140863
1043.5	0.142104
1043.64	0.139621
1043.77	0.138691
1043.9	0.139932
1044.04	0.140242
1044.17	0.13838
1044.31	0.139932
1044.44	0.143034
1044.57	0.145206
1044.71	0.137139
1044.84	0.139311
1044.97	0.140552
1045.11	0.139932
1045.24	0.143965
1045.38	0.141483
1045.51	0.145206
1045.64	0.137139
1045.78	0.141173
1045.91	0.13807
1046.04	0.141483
1046.18	0.143034
1046.31	0.141483
1046.45	0.142104
1046.58	0.139932
1046.71	0.13807
1046.85	0.142414
1046.98	0.143965
1047.11	0.140552
1047.25	0.137139
1047.38	0.141483
1047.52	0.140863
1047.65	0.140552
1047.78	0.139001
1047.92	0.142104
1048.05	0.134967
1048.18	0.143345
1048.32	0.141793
1048.45	0.13838
1048.59	0.143965
1048.72	0.135898
1048.85	0.142724
1048.99	0.143345
1049.12	0.143345
1049.25	0.142414
1049.39	0.139311
1049.52	0.139001
1049.66	0.141793
1049.79	0.145517
1049.92	0.139932
1050.06	0.145206
1050.19	0.141793
1050.33	0.140242
1050.46	0.142724
1050.59	0.137139
1050.73	0.141483
1050.86	0.141483
1050.99	0.140242
1051.13	0.13745
1051.26	0.139932
1051.4	0.13745
1051.53	0.136829
1051.66	0.140552
1051.8	0.13807
1051.93	0.142414
1052.06	0.143345
1052.2	0.133726
1052.33	0.139311
1052.47	0.139621
1052.6	0.140552
1052.73	0.140863
1052.87	0.141173
1053	0.140242
1053.13	0.138691
1053.27	0.139001
1053.4	0.145206
1053.54	0.140552
1053.67	0.139932
1053.8	0.140863
1053.94	0.141793
1054.07	0.139621
1054.2	0.141173
1054.34	0.142414
1054.47	0.139932
1054.61	0.139001
1054.74	0.141173
1054.87	0.13807
1055.01	0.13807
1055.14	0.141173
1055.27	0.139621
1055.41	0.139621
1055.54	0.143345
1055.68	0.139621
1055.81	0.13838
1055.94	0.141173
1056.08	0.13776
1056.21	0.139932
1056.34	0.141173
1056.48	0.137139
1056.61	0.142104
1056.75	0.141173
1056.88	0.141793
1057.01	0.139311
1057.15	0.142414
1057.28	0.141173
1057.41	0.144276
1057.55	0.141793
1057.68	0.13807
1057.82	0.138691
1057.95	0.142414
1058.08	0.135898
1058.22	0.136829
1058.35	0.139001
1058.48	0.139932
1058.62	0.137139
1058.75	0.140863
1058.89	0.139311
1059.02	0.13776
1059.15	0.139932
1059.29	0.140552
1059.42	0.139311
1059.55	0.140552
1059.69	0.142104
1059.82	0.142104
1059.96	0.13838
1060.09	0.141793
1060.22	0.139001
1060.36	0.139621
1060.49	0.13838
1060.62	0.144896
1060.76	0.139932
1060.89	0.140242
1061.03	0.143965
1061.16	0.139311
1061.29	0.139001
1061.43	0.13807
1061.56	0.141173
1061.69	0.13807
1061.83	0.141483
1061.96	0.134037
1062.1	0.141793
1062.23	0.139621
1062.36	0.140242
1062.5	0.13807
1062.63	0.13838
1062.76	0.143345
1062.9	0.140863
1063.03	0.139311
1063.17	0.141173
1063.3	0.142414
1063.43	0.141483
1063.57	0.141173
1063.7	0.140863
1063.83	0.143345
1063.97	0.139932
1064.1	0.139932
1064.23	0.140863
1064.37	0.140552
1064.5	0.141793
1064.64	0.143034
1064.77	0.139621
1064.9	0.134967
1065.04	0.141483
1065.17	0.141483
1065.3	0.138691
1065.44	0.137139
1065.57	0.142724
1065.71	0.139311
1065.84	0.139932
1065.97	0.139311
1066.11	0.146137
1066.24	0.142414
1066.37	0.141793
1066.51	0.139621
1066.64	0.141173
1066.78	0.142104
1066.91	0.141483
1067.04	0.140242
1067.18	0.13838
1067.31	0.141793
1067.44	0.141483
1067.58	0.142414
1067.71	0.144896
1067.85	0.134657
1067.98	0.137139
1068.11	0.142414
1068.25	0.140863
1068.38	0.139621
1068.51	0.13807
1068.65	0.139621
1068.78	0.139311
1068.92	0.139001
1069.05	0.142414
1069.18	0.142414
1069.32	0.137139
1069.45	0.137139
1069.58	0.143965
1069.72	0.138691
1069.85	0.140242
1069.98	0.13838
1070.12	0.146137
1070.25	0.13838
1070.39	0.139311
1070.52	0.142724
1070.65	0.140863
1070.79	0.139311
1070.92	0.145206
1071.05	0.140242
1071.19	0.139621
1071.32	0.140863
1071.46	0.139621
1071.59	0.142414
1071.72	0.142724
1071.86	0.13838
1071.99	0.143034
1072.12	0.143034
1072.26	0.143965
1072.39	0.143345
1072.53	0.139311
1072.66	0.143034
1072.79	0.142414
1072.93	0.139932
1073.06	0.13745
1073.19	0.141483
1073.33	0.143655
1073.46	0.142724
1073.59	0.141483
1073.73	0.142104
1073.86	0.13745
1074	0.142414
1074.13	0.140863
1074.26	0.140552
1074.4	0.142414
1074.53	0.138691
1074.66	0.139311
1074.8	0.139001
1074.93	0.142104
1075.07	0.143345
1075.2	0.145827
1075.33	0.140552
1075.47	0.140242
1075.6	0.143345
1075.73	0.13776
1075.87	0.138691
1076	0.145206
1076.14	0.137139
1076.27	0.143965
1076.4	0.140863
1076.54	0.140863
1076.67	0.143655
1076.8	0.140552
1076.94	0.138691
1077.07	0.136829
1077.2	0.13838
1077.34	0.137139
1077.47	0.13807
1077.61	0.142104
1077.74	0.141483
1077.87	0.140552
1078.01	0.139621
1078.14	0.139311
1078.27	0.139001
1078.41	0.140242
1078.54	0.141173
1078.68	0.140242
1078.81	0.139311
1078.94	0.141483
1079.08	0.13745
1079.21	0.141173
1079.34	0.139932
1079.48	0.139311
1079.61	0.140242
1079.74	0.140863
1079.88	0.140552
1080.01	0.136829
1080.15	0.141173
1080.28	0.139621
1080.41	0.142414
1080.55	0.139311
1080.68	0.139932
1080.81	0.139001
1080.95	0.139621
1081.08	0.137139
1081.22	0.143345
1081.35	0.141173
1081.48	0.13807
1081.62	0.139311
1081.75	0.140552
1081.88	0.141173
1082.02	0.139001
1082.15	0.139932
1082.28	0.13838
1082.42	0.139311
1082.55	0.135278
1082.69	0.13745
1082.82	0.139001
1082.95	0.139932
1083.09	0.140863
1083.22	0.137139
1083.35	0.13745
1083.49	0.141793
1083.62	0.13838
1083.75	0.141483
1083.89	0.139932
1084.02	0.139932
1084.16	0.139001
1084.29	0.142414
1084.42	0.143345
1084.56	0.140242
1084.69	0.141483
1084.82	0.143655
1084.96	0.142724
1085.09	0.139932
1085.23	0.141483
1085.36	0.140242
1085.49	0.140242
1085.63	0.138691
1085.76	0.142724
1085.89	0.142724
1086.03	0.142724
1086.16	0.141173
1086.29	0.139001
1086.43	0.142414
1086.56	0.135898
1086.7	0.144276
1086.83	0.142104
1086.96	0.13776
1087.1	0.140863
1087.23	0.143345
1087.36	0.139001
1087.5	0.141173
1087.63	0.142724
1087.76	0.140552
1087.9	0.13745
1088.03	0.143345
1088.17	0.141173
1088.3	0.145206
1088.43	0.144276
1088.57	0.13745
1088.7	0.138691
1088.83	0.142104
1088.97	0.142104
1089.1	0.13807
1089.24	0.141483
1089.37	0.141173
1089.5	0.139932
1089.64	0.140552
1089.77	0.139932
1089.9	0.141793
1090.04	0.13838
1090.17	0.13776
1090.3	0.142414
1090.44	0.140863
1090.57	0.140552
1090.71	0.142104
1090.84	0.145517
1090.97	0.140242
1091.11	0.145206
1091.24	0.139621
1091.37	0.140242
1091.51	0.139311
1091.64	0.136519
1091.77	0.143965
1091.91	0.140552
1092.04	0.142104
1092.18	0.141173
1092.31	0.140552
1092.44	0.139001
1092.58	0.141173
1092.71	0.140242
1092.84	0.142414
1092.98	0.141483
1093.11	0.143345
1093.24	0.142724
1093.38	0.13745
1093.51	0.143345
1093.65	0.142104
1093.78	0.140552
1093.91	0.142414
1094.05	0.144586
1094.18	0.143965
1094.31	0.140863
1094.45	0.142414
1094.58	0.143655
1094.71	0.136209
1094.85	0.142104
1094.98	0.140863
1095.12	0.140863
1095.25	0.141483
1095.38	0.139932
1095.52	0.141793
1095.65	0.143345
1095.78	0.137139
1095.92	0.140863
1096.05	0.13745
1096.18	0.140552
1096.32	0.139001
1096.45	0.140863
1096.59	0.143345
1096.72	0.144276
1096.85	0.142104
1096.99	0.13838
1097.12	0.142414
1097.25	0.138691
1097.39	0.13776
1097.52	0.139001
1097.65	0.143034
1097.79	0.140242
1097.92	0.135588
1098.06	0.144276
1098.19	0.140242
1098.32	0.136209
1098.46	0.13807
1098.59	0.139621
1098.72	0.143034
1098.86	0.143345
1098.99	0.141173
1099.12	0.142724
1099.26	0.139001
1099.39	0.141483
1099.53	0.140242
1099.66	0.140242
1099.79	0.140552
1099.93	0.139311
1100.06	0.139001
1100.19	0.143345
1100.33	0.135588
1100.46	0.140242
1100.59	0.140552
1100.73	0.140242
1100.86	0.141173
1100.99	0.139932
1101.13	0.13807
1101.26	0.139932
1101.4	0.137139
1101.53	0.146137
1101.66	0.140242
1101.8	0.141173
1101.93	0.140242
1102.06	0.142724
1102.2	0.138691
1102.33	0.141483
1102.46	0.141173
1102.6	0.141483
1102.73	0.143655
1102.87	0.137139
1103	0.139311
1103.13	0.143655
1103.27	0.140242
1103.4	0.145517
1103.53	0.142724
1103.67	0.139001
1103.8	0.139621
1103.93	0.146447
1104.07	0.140863
1104.2	0.139932
1104.34	0.143655
1104.47	0.140863
1104.6	0.142104
1104.74	0.139932
1104.87	0.143655
1105	0.140242
1105.14	0.13838
1105.27	0.135898
1105.4	0.143655
1105.54	0.142104
1105.67	0.140552
1105.8	0.141483
1105.94	0.136519
1106.07	0.140863
1106.21	0.142724
1106.34	0.144276
1106.47	0.136209
1106.61	0.13745
1106.74	0.143345
1106.87	0.142724
1107.01	0.142724
1107.14	0.13838
1107.27	0.141483
1107.41	0.135898
1107.54	0.139001

