Source: Spectrum Viewer

Chart: Pulse Spectrum

Series: 
Wavelength (nm)	S (a.u.)
617.638	0.0851974
617.773	0.086559
617.908	0.0923945
618.043	0.0898658
618.178	0.0877261
618.313	0.0867535
618.448	0.0886987
618.583	0.0904493
618.718	0.08617
618.853	0.0879206
618.988	0.0894768
619.123	0.0869481
619.258	0.0892822
619.394	0.0888932
619.529	0.0896713
619.664	0.0890877
619.799	0.0873371
619.934	0.0892822
620.069	0.0912274
620.204	0.0912274
620.339	0.0892822
620.474	0.0894768
620.609	0.0886987
620.744	0.0869481
620.879	0.0892822
621.014	0.0896713
621.149	0.0855865
621.284	0.0863645
621.419	0.0888932
621.554	0.086559
621.689	0.0875316
621.825	0.0898658
621.96	0.0892822
622.095	0.0879206
622.23	0.0900603
622.365	0.0850029
622.5	0.0888932
622.635	0.0875316
622.77	0.0890877
622.905	0.0888932
623.04	0.0873371
623.175	0.0892822
623.31	0.0875316
623.445	0.0879206
623.58	0.0896713
623.715	0.0881152
623.85	0.085781
623.985	0.0906438
624.12	0.0873371
624.255	0.0908384
624.39	0.0883097
624.525	0.0902548
624.661	0.0898658
624.796	0.0920054
624.931	0.0894768
625.066	0.0892822
625.201	0.0877261
625.336	0.0898658
625.471	0.0863645
625.606	0.0877261
625.741	0.0923945
625.876	0.0890877
626.011	0.0892822
626.146	0.0877261
626.281	0.0879206
626.416	0.0869481
626.551	0.0914219
626.686	0.0869481
626.821	0.0894768
626.956	0.0871426
627.091	0.0877261
627.226	0.0888932
627.361	0.0890877
627.496	0.0873371
627.631	0.0883097
627.766	0.0886987
627.901	0.0896713
628.036	0.0877261
628.171	0.085781
628.307	0.0920054
628.442	0.092589
628.577	0.0892822
628.712	0.0894768
628.847	0.0888932
628.982	0.0873371
629.117	0.0875316
629.252	0.0869481
629.387	0.0867535
629.522	0.0904493
629.657	0.0859755
629.792	0.0879206
629.927	0.0890877
630.062	0.0871426
630.197	0.0877261
630.332	0.0863645
630.467	0.0859755
630.602	0.0900603
630.737	0.0867535
630.872	0.0879206
631.007	0.0863645
631.142	0.0900603
631.277	0.0871426
631.412	0.0853919
631.547	0.0890877
631.682	0.0875316
631.817	0.0881152
631.952	0.0879206
632.087	0.0904493
632.222	0.0904493
632.357	0.0873371
632.492	0.0877261
632.627	0.0875316
632.762	0.086559
632.897	0.0900603
633.032	0.0894768
633.167	0.0908384
633.302	0.0877261
633.437	0.0877261
633.572	0.0853919
633.707	0.0886987
633.842	0.0855865
633.978	0.0863645
634.113	0.0881152
634.248	0.0850029
634.383	0.0873371
634.518	0.0875316
634.653	0.0888932
634.788	0.0867535
634.923	0.0881152
635.058	0.0883097
635.193	0.0877261
635.328	0.0885042
635.463	0.0877261
635.598	0.0851974
635.733	0.0881152
635.868	0.0902548
636.003	0.0890877
636.138	0.0890877
636.273	0.0877261
636.408	0.0867535
636.543	0.0881152
636.678	0.0902548
636.813	0.0914219
636.948	0.0888932
637.083	0.0886987
637.218	0.0890877
637.353	0.0875316
637.488	0.0908384
637.623	0.0883097
637.758	0.0896713
637.893	0.0888932
638.028	0.085781
638.163	0.0898658
638.298	0.0890877
638.433	0.0898658
638.568	0.0881152
638.703	0.0914219
638.838	0.0867535
638.973	0.08617
639.108	0.0883097
639.243	0.0859755
639.378	0.0902548
639.513	0.0877261
639.648	0.0881152
639.783	0.0871426
639.918	0.0869481
640.053	0.0877261
640.188	0.0877261
640.323	0.0906438
640.458	0.0853919
640.593	0.0885042
640.728	0.0851974
640.863	0.0906438
640.998	0.0885042
641.133	0.0879206
641.268	0.0844194
641.403	0.0885042
641.538	0.0886987
641.673	0.0886987
641.808	0.0879206
641.943	0.0877261
642.078	0.0888932
642.213	0.0881152
642.348	0.0892822
642.483	0.0883097
642.618	0.0879206
642.753	0.0914219
642.888	0.08617
643.023	0.0894768
643.158	0.0885042
643.293	0.0898658
643.428	0.0863645
643.563	0.0898658
643.698	0.0877261
643.833	0.0898658
643.968	0.08617
644.103	0.0904493
644.237	0.0894768
644.372	0.0883097
644.507	0.0879206
644.642	0.0898658
644.777	0.0892822
644.912	0.0885042
645.047	0.0886987
645.182	0.0877261
645.317	0.0896713
645.452	0.0875316
645.587	0.0853919
645.722	0.0906438
645.857	0.0900603
645.992	0.0853919
646.127	0.0892822
646.262	0.0885042
646.397	0.0885042
646.532	0.0888932
646.667	0.0853919
646.802	0.0920054
646.937	0.0883097
647.072	0.0883097
647.207	0.0906438
647.342	0.0873371
647.477	0.0908384
647.612	0.086559
647.747	0.0900603
647.882	0.0881152
648.017	0.0890877
648.152	0.0877261
648.287	0.0879206
648.422	0.0908384
648.557	0.0883097
648.692	0.0892822
648.827	0.0898658
648.962	0.0902548
649.097	0.0935616
649.232	0.0888932
649.367	0.0855865
649.502	0.0875316
649.637	0.0890877
649.772	0.0906438
649.906	0.0910329
650.041	0.0906438
650.176	0.0863645
650.311	0.08617
650.446	0.0885042
650.581	0.0894768
650.716	0.0879206
650.851	0.0890877
650.986	0.0877261
651.121	0.0883097
651.256	0.0886987
651.391	0.0879206
651.526	0.0855865
651.661	0.0873371
651.796	0.0892822
651.931	0.0896713
652.066	0.0881152
652.201	0.0898658
652.336	0.0877261
652.471	0.0879206
652.606	0.0877261
652.741	0.0890877
652.876	0.0875316
653.011	0.0892822
653.146	0.0896713
653.281	0.0886987
653.415	0.0914219
653.55	0.0853919
653.685	0.0888932
653.82	0.0881152
653.955	0.0906438
654.09	0.0894768
654.225	0.0879206
654.36	0.085781
654.495	0.0879206
654.63	0.0916164
654.765	0.0877261
654.9	0.0892822
655.035	0.0894768
655.17	0.085781
655.305	0.0888932
655.44	0.0883097
655.575	0.0863645
655.71	0.085781
655.845	0.0877261
655.98	0.0877261
656.115	0.0877261
656.25	0.0879206
656.384	0.0871426
656.519	0.0888932
656.654	0.0875316
656.789	0.0890877
656.924	0.0863645
657.059	0.0883097
657.194	0.0859755
657.329	0.0879206
657.464	0.0894768
657.599	0.0883097
657.734	0.08617
657.869	0.0888932
658.004	0.0894768
658.139	0.0888932
658.274	0.085781
658.409	0.0890877
658.544	0.0892822
658.679	0.0890877
658.813	0.0879206
658.948	0.0900603
659.083	0.0877261
659.218	0.085781
659.353	0.0867535
659.488	0.0920054
659.623	0.0886987
659.758	0.0871426
659.893	0.0908384
660.028	0.0871426
660.163	0.0875316
660.298	0.0871426
660.433	0.0894768
660.568	0.0888932
660.703	0.0869481
660.838	0.0879206
660.972	0.0881152
661.107	0.0881152
661.242	0.086559
661.377	0.0886987
661.512	0.0883097
661.647	0.0851974
661.782	0.0906438
661.917	0.0875316
662.052	0.0873371
662.187	0.0914219
662.322	0.0886987
662.457	0.0867535
662.592	0.0896713
662.727	0.0879206
662.862	0.0883097
662.996	0.0850029
663.131	0.0877261
663.266	0.0877261
663.401	0.0885042
663.536	0.0894768
663.671	0.0900603
663.806	0.0877261
663.941	0.0881152
664.076	0.0877261
664.211	0.0892822
664.346	0.0898658
664.481	0.0873371
664.616	0.0844194
664.75	0.0902548
664.885	0.0892822
665.02	0.0885042
665.155	0.0879206
665.29	0.0883097
665.425	0.0846139
665.56	0.0881152
665.695	0.0890877
665.83	0.0877261
665.965	0.0885042
666.1	0.0879206
666.235	0.0881152
666.37	0.0892822
666.504	0.0910329
666.639	0.0898658
666.774	0.0871426
666.909	0.0881152
667.044	0.0873371
667.179	0.0904493
667.314	0.0869481
667.449	0.085781
667.584	0.0867535
667.719	0.0879206
667.854	0.0886987
667.989	0.0885042
668.123	0.0894768
668.258	0.0873371
668.393	0.0867535
668.528	0.0869481
668.663	0.0873371
668.798	0.0873371
668.933	0.0894768
669.068	0.0879206
669.203	0.0871426
669.338	0.0873371
669.473	0.0885042
669.607	0.0869481
669.742	0.0877261
669.877	0.0885042
670.012	0.0885042
670.147	0.0890877
670.282	0.0894768
670.417	0.0875316
670.552	0.0873371
670.687	0.0900603
670.822	0.0908384
670.957	0.0898658
671.091	0.0892822
671.226	0.0877261
671.361	0.0875316
671.496	0.0863645
671.631	0.0894768
671.766	0.0850029
671.901	0.0888932
672.036	0.0885042
672.171	0.0894768
672.306	0.0888932
672.44	0.0885042
672.575	0.0879206
672.71	0.0883097
672.845	0.08617
672.98	0.0886987
673.115	0.0885042
673.25	0.0844194
673.385	0.0871426
673.52	0.0873371
673.655	0.0886987
673.789	0.0863645
673.924	0.0896713
674.059	0.0885042
674.194	0.0863645
674.329	0.0904493
674.464	0.0896713
674.599	0.0908384
674.734	0.0886987
674.869	0.0859755
675.003	0.0867535
675.138	0.0886987
675.273	0.0875316
675.408	0.0900603
675.543	0.0892822
675.678	0.0886987
675.813	0.0898658
675.948	0.0888932
676.083	0.0890877
676.217	0.0881152
676.352	0.0863645
676.487	0.0886987
676.622	0.0894768
676.757	0.0894768
676.892	0.0867535
677.027	0.0892822
677.162	0.0875316
677.297	0.0892822
677.431	0.0885042
677.566	0.0892822
677.701	0.0883097
677.836	0.0883097
677.971	0.0877261
678.106	0.0898658
678.241	0.086559
678.376	0.0896713
678.511	0.0910329
678.645	0.086559
678.78	0.0890877
678.915	0.0871426
679.05	0.0910329
679.185	0.0896713
679.32	0.0873371
679.455	0.0863645
679.59	0.0896713
679.724	0.0894768
679.859	0.0840303
679.994	0.0873371
680.129	0.0881152
680.264	0.0879206
680.399	0.0851974
680.534	0.0879206
680.669	0.0894768
680.803	0.0869481
680.938	0.0914219
681.073	0.0869481
681.208	0.0908384
681.343	0.0873371
681.478	0.086559
681.613	0.0900603
681.748	0.0890877
681.882	0.0881152
682.017	0.085781
682.152	0.0867535
682.287	0.0885042
682.422	0.0888932
682.557	0.0892822
682.692	0.085781
682.827	0.0894768
682.961	0.0875316
683.096	0.0900603
683.231	0.0894768
683.366	0.0869481
683.501	0.0855865
683.636	0.085781
683.771	0.0883097
683.906	0.0859755
684.04	0.0875316
684.175	0.0883097
684.31	0.0906438
684.445	0.08617
684.58	0.0910329
684.715	0.0900603
684.85	0.0859755
684.984	0.0848084
685.119	0.085781
685.254	0.0869481
685.389	0.0892822
685.524	0.0888932
685.659	0.0881152
685.794	0.0877261
685.928	0.0877261
686.063	0.0869481
686.198	0.0869481
686.333	0.0890877
686.468	0.0873371
686.603	0.0877261
686.738	0.0904493
686.872	0.0875316
687.007	0.0918109
687.142	0.0881152
687.277	0.0927835
687.412	0.0898658
687.547	0.0883097
687.682	0.0883097
687.816	0.0879206
687.951	0.0875316
688.086	0.08617
688.221	0.0875316
688.356	0.08617
688.491	0.0892822
688.626	0.0873371
688.76	0.0904493
688.895	0.0883097
689.03	0.0855865
689.165	0.0886987
689.3	0.0879206
689.435	0.0873371
689.57	0.0896713
689.704	0.0898658
689.839	0.0886987
689.974	0.0885042
690.109	0.0875316
690.244	0.0881152
690.379	0.0875316
690.513	0.0896713
690.648	0.0875316
690.783	0.0867535
690.918	0.0896713
691.053	0.0879206
691.188	0.0883097
691.323	0.086559
691.457	0.0883097
691.592	0.0879206
691.727	0.0863645
691.862	0.0879206
691.997	0.085781
692.132	0.0883097
692.266	0.0875316
692.401	0.0879206
692.536	0.0883097
692.671	0.0875316
692.806	0.0892822
692.941	0.0881152
693.075	0.0912274
693.21	0.0877261
693.345	0.0879206
693.48	0.0906438
693.615	0.0859755
693.75	0.0867535
693.885	0.0896713
694.019	0.0879206
694.154	0.0871426
694.289	0.0879206
694.424	0.0888932
694.559	0.0888932
694.694	0.0877261
694.828	0.0877261
694.963	0.0875316
695.098	0.085781
695.233	0.0888932
695.368	0.0888932
695.503	0.0890877
695.637	0.0894768
695.772	0.0904493
695.907	0.0877261
696.042	0.0904493
696.177	0.0873371
696.312	0.0881152
696.446	0.0916164
696.581	0.0873371
696.716	0.0869481
696.851	0.0871426
696.986	0.0906438
697.12	0.0896713
697.255	0.0883097
697.39	0.0883097
697.525	0.0844194
697.66	0.0867535
697.795	0.0890877
697.929	0.0894768
698.064	0.0892822
698.199	0.086559
698.334	0.0859755
698.469	0.0896713
698.604	0.0871426
698.738	0.0888932
698.873	0.0904493
699.008	0.0855865
699.143	0.0877261
699.278	0.0873371
699.412	0.0867535
699.547	0.0900603
699.682	0.0881152
699.817	0.0877261
699.952	0.0875316
700.087	0.0869481
700.221	0.0863645
700.356	0.0892822
700.491	0.0888932
700.626	0.086559
700.761	0.086559
700.895	0.08617
701.03	0.0918109
701.165	0.0881152
701.3	0.0910329
701.435	0.0883097
701.57	0.0877261
701.704	0.0904493
701.839	0.0910329
701.974	0.0890877
702.109	0.0883097
702.244	0.0890877
702.378	0.0916164
702.513	0.0844194
702.648	0.0888932
702.783	0.0892822
702.918	0.0886987
703.052	0.0850029
703.187	0.0879206
703.322	0.0871426
703.457	0.0869481
703.592	0.0885042
703.727	0.08617
703.861	0.0896713
703.996	0.0888932
704.131	0.0875316
704.266	0.0890877
704.401	0.0850029
704.535	0.0883097
704.67	0.0871426
704.805	0.08617
704.94	0.0879206
705.075	0.0869481
705.209	0.0867535
705.344	0.0886987
705.479	0.0898658
705.614	0.0875316
705.749	0.0873371
705.883	0.0869481
706.018	0.0881152
706.153	0.0877261
706.288	0.0894768
706.423	0.0892822
706.557	0.0885042
706.692	0.0885042
706.827	0.0877261
706.962	0.0894768
707.097	0.0875316
707.231	0.0875316
707.366	0.0898658
707.501	0.0906438
707.636	0.0850029
707.771	0.0883097
707.905	0.085781
708.04	0.0873371
708.175	0.0855865
708.31	0.0886987
708.445	0.0875316
708.579	0.0900603
708.714	0.0873371
708.849	0.0879206
708.984	0.0896713
709.118	0.0879206
709.253	0.0894768
709.388	0.0890877
709.523	0.0912274
709.658	0.0914219
709.792	0.0892822
709.927	0.0873371
710.062	0.0898658
710.197	0.0885042
710.332	0.0898658
710.466	0.08617
710.601	0.0892822
710.736	0.0883097
710.871	0.0906438
711.006	0.0892822
711.14	0.0883097
711.275	0.0888932
711.41	0.0879206
711.545	0.0892822
711.679	0.0875316
711.814	0.0871426
711.949	0.0888932
712.084	0.0873371
712.219	0.0875316
712.353	0.0885042
712.488	0.0881152
712.623	0.086559
712.758	0.0894768
712.892	0.0904493
713.027	0.0898658
713.162	0.0902548
713.297	0.0886987
713.432	0.0894768
713.566	0.086559
713.701	0.0896713
713.836	0.0908384
713.971	0.0869481
714.105	0.0859755
714.24	0.0867535
714.375	0.0869481
714.51	0.0892822
714.645	0.0906438
714.779	0.08617
714.914	0.0894768
715.049	0.0867535
715.184	0.0879206
715.318	0.0873371
715.453	0.0888932
715.588	0.0873371
715.723	0.0879206
715.858	0.0883097
715.992	0.0855865
716.127	0.0853919
716.262	0.0894768
716.397	0.0914219
716.531	0.0877261
716.666	0.0898658
716.801	0.0894768
716.936	0.0871426
717.07	0.0894768
717.205	0.0888932
717.34	0.0853919
717.475	0.0863645
717.61	0.086559
717.744	0.0890877
717.879	0.0879206
718.014	0.0877261
718.149	0.0904493
718.283	0.0886987
718.418	0.0883097
718.553	0.0892822
718.688	0.08617
718.822	0.0910329
718.957	0.0873371
719.092	0.0888932
719.227	0.0871426
719.361	0.0885042
719.496	0.0855865
719.631	0.0888932
719.766	0.086559
719.9	0.0908384
720.035	0.092589
720.17	0.0869481
720.305	0.0886987
720.44	0.0888932
720.574	0.0906438
720.709	0.0881152
720.844	0.08617
720.979	0.0879206
721.113	0.086559
721.248	0.0867535
721.383	0.0888932
721.518	0.086559
721.652	0.0890877
721.787	0.0883097
721.922	0.0873371
722.057	0.0877261
722.191	0.0871426
722.326	0.0892822
722.461	0.0896713
722.596	0.0850029
722.73	0.0851974
722.865	0.0879206
723	0.0894768
723.135	0.0883097
723.269	0.0873371
723.404	0.0879206
723.539	0.0890877
723.674	0.085781
723.808	0.0888932
723.943	0.0890877
724.078	0.0894768
724.213	0.0877261
724.347	0.0863645
724.482	0.0883097
724.617	0.0877261
724.752	0.0892822
724.886	0.0869481
725.021	0.0890877
725.156	0.086559
725.291	0.0867535
725.425	0.086559
725.56	0.0894768
725.695	0.0883097
725.829	0.0904493
725.964	0.0881152
726.099	0.0883097
726.234	0.0886987
726.368	0.0871426
726.503	0.0879206
726.638	0.0888932
726.773	0.0863645
726.907	0.0877261
727.042	0.0877261
727.177	0.0894768
727.312	0.0906438
727.446	0.0875316
727.581	0.0869481
727.716	0.0869481
727.851	0.0871426
727.985	0.0863645
728.12	0.0910329
728.255	0.0869481
728.389	0.0881152
728.524	0.0883097
728.659	0.0886987
728.794	0.0886987
728.928	0.0840303
729.063	0.0892822
729.198	0.0867535
729.333	0.0892822
729.467	0.0910329
729.602	0.0892822
729.737	0.0883097
729.872	0.0892822
730.006	0.0886987
730.141	0.0894768
730.276	0.0875316
730.41	0.0912274
730.545	0.0885042
730.68	0.0885042
730.815	0.0892822
730.949	0.0912274
731.084	0.08617
731.219	0.0892822
731.354	0.0859755
731.488	0.0894768
731.623	0.0894768
731.758	0.0894768
731.892	0.086559
732.027	0.0898658
732.162	0.0912274
732.297	0.0875316
732.431	0.0916164
732.566	0.0867535
732.701	0.0894768
732.835	0.0881152
732.97	0.0883097
733.105	0.0890877
733.24	0.0859755
733.374	0.0883097
733.509	0.0859755
733.644	0.0853919
733.779	0.0873371
733.913	0.0900603
734.048	0.0894768
734.183	0.0883097
734.317	0.0873371
734.452	0.0890877
734.587	0.0890877
734.722	0.0898658
734.856	0.0877261
734.991	0.0900603
735.126	0.0890877
735.26	0.0871426
735.395	0.0850029
735.53	0.0875316
735.665	0.0875316
735.799	0.0859755
735.934	0.0879206
736.069	0.0879206
736.203	0.0888932
736.338	0.0875316
736.473	0.0871426
736.607	0.0879206
736.742	0.0851974
736.877	0.0888932
737.012	0.0906438
737.146	0.0892822
737.281	0.0863645
737.416	0.0881152
737.55	0.0892822
737.685	0.08617
737.82	0.0881152
737.955	0.0875316
738.089	0.0883097
738.224	0.086559
738.359	0.0914219
738.493	0.0851974
738.628	0.0886987
738.763	0.0869481
738.897	0.0859755
739.032	0.0900603
739.167	0.0881152
739.302	0.086559
739.436	0.0883097
739.571	0.0881152
739.706	0.0890877
739.84	0.0875316
739.975	0.0906438
740.11	0.086559
740.244	0.0894768
740.379	0.0886987
740.514	0.0902548
740.649	0.0885042
740.783	0.0877261
740.918	0.0886987
741.053	0.0890877
741.187	0.0879206
741.322	0.0883097
741.457	0.0883097
741.591	0.085781
741.726	0.0869481
741.861	0.0890877
741.996	0.0910329
742.13	0.0886987
742.265	0.0877261
742.4	0.0848084
742.534	0.0892822
742.669	0.0890877
742.804	0.0869481
742.938	0.0875316
743.073	0.0906438
743.208	0.0881152
743.342	0.0877261
743.477	0.0890877
743.612	0.0900603
743.747	0.0896713
743.881	0.0877261
744.016	0.0888932
744.151	0.0916164
744.285	0.0883097
744.42	0.0881152
744.555	0.0873371
744.689	0.0886987
744.824	0.0867535
744.959	0.0898658
745.093	0.0875316
745.228	0.0914219
745.363	0.0885042
745.497	0.0900603
745.632	0.0867535
745.767	0.0885042
745.901	0.0906438
746.036	0.0877261
746.171	0.0910329
746.305	0.0873371
746.44	0.0886987
746.575	0.0879206
746.71	0.0869481
746.844	0.0883097
746.979	0.0867535
747.114	0.0881152
747.248	0.0900603
747.383	0.0883097
747.518	0.0888932
747.652	0.0883097
747.787	0.0877261
747.922	0.086559
748.056	0.0869481
748.191	0.0879206
748.326	0.0877261
748.46	0.085781
748.595	0.0920054
748.73	0.0873371
748.864	0.0873371
748.999	0.0898658
749.134	0.0896713
749.268	0.0894768
749.403	0.0894768
749.538	0.0877261
749.672	0.0896713
749.807	0.0896713
749.942	0.0890877
750.076	0.08617
750.211	0.0877261
750.346	0.0888932
750.48	0.0890877
750.615	0.0892822
750.75	0.0890877
750.884	0.0883097
751.019	0.0881152
751.154	0.0877261
751.288	0.0896713
751.423	0.0853919
751.558	0.0890877
751.692	0.0873371
751.827	0.0886987
751.962	0.0875316
752.096	0.0873371
752.231	0.0867535
752.366	0.0885042
752.5	0.0896713
752.635	0.0888932
752.77	0.0892822
752.904	0.0886987
753.039	0.0900603
753.174	0.0871426
753.308	0.0904493
753.443	0.0908384
753.578	0.0892822
753.712	0.0881152
753.847	0.0885042
753.982	0.0890877
754.116	0.0886987
754.251	0.0859755
754.386	0.0867535
754.52	0.0883097
754.655	0.08617
754.79	0.0869481
754.924	0.0906438
755.059	0.0885042
755.194	0.0888932
755.328	0.0883097
755.463	0.0877261
755.597	0.0867535
755.732	0.0898658
755.867	0.0885042
756.001	0.0894768
756.136	0.0902548
756.271	0.0902548
756.405	0.0859755
756.54	0.0883097
756.675	0.0879206
756.809	0.0877261
756.944	0.0871426
757.079	0.0888932
757.213	0.0894768
757.348	0.0873371
757.483	0.0920054
757.617	0.0910329
757.752	0.0863645
757.887	0.0879206
758.021	0.0867535
758.156	0.0918109
758.29	0.0906438
758.425	0.0875316
758.56	0.0871426
758.694	0.0877261
758.829	0.0881152
758.964	0.0873371
759.098	0.0920054
759.233	0.0888932
759.368	0.0877261
759.502	0.0908384
759.637	0.0869481
759.772	0.0877261
759.906	0.0883097
760.041	0.0871426
760.175	0.0873371
760.31	0.0886987
760.445	0.0892822
760.579	0.0851974
760.714	0.0890877
760.849	0.0863645
760.983	0.0894768
761.118	0.0871426
761.253	0.0883097
761.387	0.0885042
761.522	0.0914219
761.656	0.0879206
761.791	0.0894768
761.926	0.0863645
762.06	0.0902548
762.195	0.0885042
762.33	0.0867535
762.464	0.0904493
762.599	0.0883097
762.733	0.0873371
762.868	0.0890877
763.003	0.0851974
763.137	0.0881152
763.272	0.0908384
763.407	0.0883097
763.541	0.0881152
763.676	0.0879206
763.811	0.0900603
763.945	0.0885042
764.08	0.0896713
764.214	0.0885042
764.349	0.0896713
764.484	0.0883097
764.618	0.0881152
764.753	0.0881152
764.888	0.0896713
765.022	0.0904493
765.157	0.0883097
765.291	0.0881152
765.426	0.0892822
765.561	0.0875316
765.695	0.0896713
765.83	0.0900603
765.965	0.0908384
766.099	0.0875316
766.234	0.086559
766.368	0.0863645
766.503	0.0885042
766.638	0.0918109
766.772	0.0848084
766.907	0.0892822
767.041	0.0879206
767.176	0.0898658
767.311	0.0894768
767.445	0.0881152
767.58	0.086559
767.715	0.0867535
767.849	0.0883097
767.984	0.0879206
768.118	0.0902548
768.253	0.0883097
768.388	0.0877261
768.522	0.0851974
768.657	0.0879206
768.791	0.0900603
768.926	0.08617
769.061	0.0873371
769.195	0.0890877
769.33	0.0855865
769.465	0.0910329
769.599	0.0900603
769.734	0.0904493
769.868	0.0883097
770.003	0.0890877
770.138	0.0875316
770.272	0.0883097
770.407	0.0879206
770.541	0.0881152
770.676	0.0873371
770.811	0.0867535
770.945	0.0871426
771.08	0.0883097
771.214	0.0902548
771.349	0.0871426
771.484	0.0853919
771.618	0.0879206
771.753	0.0867535
771.887	0.0877261
772.022	0.0869481
772.157	0.08617
772.291	0.0846139
772.426	0.0875316
772.56	0.0896713
772.695	0.0900603
772.83	0.0888932
772.964	0.0859755
773.099	0.0879206
773.233	0.0890877
773.368	0.0896713
773.503	0.0875316
773.637	0.0890877
773.772	0.0863645
773.906	0.0877261
774.041	0.0904493
774.176	0.0875316
774.31	0.0859755
774.445	0.0875316
774.579	0.0877261
774.714	0.0881152
774.849	0.0881152
774.983	0.0850029
775.118	0.0896713
775.252	0.0890877
775.387	0.0877261
775.522	0.0886987
775.656	0.0875316
775.791	0.0900603
775.925	0.0890877
776.06	0.0896713
776.195	0.0871426
776.329	0.0848084
776.464	0.0877261
776.598	0.0871426
776.733	0.0871426
776.868	0.0867535
777.002	0.0879206
777.137	0.0871426
777.271	0.0892822
777.406	0.086559
777.54	0.0900603
777.675	0.0896713
777.81	0.0902548
777.944	0.0890877
778.079	0.0892822
778.213	0.0892822
778.348	0.0885042
778.483	0.08617
778.617	0.0890877
778.752	0.0871426
778.886	0.0871426
779.021	0.0881152
779.155	0.0867535
779.29	0.0910329
779.425	0.0879206
779.559	0.0886987
779.694	0.0888932
779.828	0.0900603
779.963	0.0877261
780.098	0.0875316
780.232	0.0873371
780.367	0.0875316
780.501	0.0886987
780.636	0.0900603
780.77	0.0873371
780.905	0.0888932
781.04	0.0900603
781.174	0.0896713
781.309	0.086559
781.443	0.0879206
781.578	0.0885042
781.712	0.0902548
781.847	0.0853919
781.982	0.0890877
782.116	0.085781
782.251	0.0908384
782.385	0.0883097
782.52	0.0873371
782.654	0.0906438
782.789	0.0883097
782.924	0.092589
783.058	0.0890877
783.193	0.0898658
783.327	0.0898658
783.462	0.0888932
783.596	0.0886987
783.731	0.0869481
783.866	0.0867535
784	0.08617
784.135	0.0875316
784.269	0.0883097
784.404	0.0879206
784.538	0.0908384
784.673	0.0871426
784.808	0.0871426
784.942	0.0894768
785.077	0.0877261
785.211	0.0886987
785.346	0.0875316
785.48	0.0900603
785.615	0.0877261
785.75	0.0888932
785.884	0.0896713
786.019	0.0877261
786.153	0.0888932
786.288	0.0879206
786.422	0.0875316
786.557	0.0892822
786.691	0.0896713
786.826	0.0918109
786.961	0.0867535
787.095	0.0894768
787.23	0.0886987
787.364	0.0906438
787.499	0.0877261
787.633	0.08617
787.768	0.0883097
787.902	0.0859755
788.037	0.0871426
788.172	0.0850029
788.306	0.0886987
788.441	0.0922
788.575	0.0881152
788.71	0.0875316
788.844	0.0892822
788.979	0.0914219
789.113	0.0883097
789.248	0.0881152
789.383	0.0875316
789.517	0.0900603
789.652	0.0879206
789.786	0.086559
789.921	0.0869481
790.055	0.0906438
790.19	0.0879206
790.324	0.0859755
790.459	0.0886987
790.594	0.0879206
790.728	0.0894768
790.863	0.0902548
790.997	0.0885042
791.132	0.0871426
791.266	0.0885042
791.401	0.08617
791.535	0.0890877
791.67	0.0890877
791.804	0.0871426
791.939	0.0890877
792.074	0.0892822
792.208	0.0879206
792.343	0.0894768
792.477	0.0869481
792.612	0.0900603
792.746	0.0883097
792.881	0.0888932
793.015	0.0881152
793.15	0.0892822
793.284	0.0890877
793.419	0.0900603
793.553	0.0894768
793.688	0.0885042
793.823	0.0896713
793.957	0.0890877
794.092	0.0859755
794.226	0.0873371
794.361	0.0892822
794.495	0.0885042
794.63	0.0855865
794.764	0.0867535
794.899	0.0890877
795.033	0.0881152
795.168	0.0910329
795.302	0.0885042
795.437	0.0886987
795.572	0.0879206
795.706	0.0871426
795.841	0.0873371
795.975	0.0886987
796.11	0.0886987
796.244	0.0855865
796.379	0.0898658
796.513	0.0916164
796.648	0.0896713
796.782	0.0896713
796.917	0.0875316
797.051	0.086559
797.186	0.085781
797.32	0.0877261
797.455	0.0886987
797.589	0.0894768
797.724	0.0896713
797.859	0.0900603
797.993	0.086559
798.128	0.0908384
798.262	0.0867535
798.397	0.0900603
798.531	0.0877261
798.666	0.0906438
798.8	0.0863645
798.935	0.0890877
799.069	0.0888932
799.204	0.0863645
799.338	0.0885042
799.473	0.0894768
799.607	0.0914219
799.742	0.0896713
799.876	0.0916164
800.011	0.0871426
800.145	0.0898658
800.28	0.0883097
800.414	0.0883097
800.549	0.0906438
800.683	0.0875316
800.818	0.0890877
800.953	0.0873371
801.087	0.0886987
801.222	0.0883097
801.356	0.0896713
801.491	0.0890877
801.625	0.0885042
801.76	0.0914219
801.894	0.0898658
802.029	0.0883097
802.163	0.0863645
802.298	0.0896713
802.432	0.0890877
802.567	0.0892822
802.701	0.0851974
802.836	0.0886987
802.97	0.0912274
803.105	0.0871426
803.239	0.0873371
803.374	0.0869481
803.508	0.0906438
803.643	0.0877261
803.777	0.0883097
803.912	0.0902548
804.046	0.0898658
804.181	0.0877261
804.315	0.0902548
804.45	0.0916164
804.584	0.0890877
804.719	0.0885042
804.853	0.0885042
804.988	0.0859755
805.122	0.0910329
805.257	0.0869481
805.391	0.0883097
805.526	0.0869481
805.66	0.0890877
805.795	0.0898658
805.929	0.0890877
806.064	0.0900603
806.198	0.0904493
806.333	0.0885042
806.467	0.0844194
806.602	0.0873371
806.736	0.0885042
806.871	0.0886987
807.005	0.0894768
807.14	0.0890877
807.274	0.0892822
807.409	0.0900603
807.543	0.0888932
807.678	0.0879206
807.812	0.0896713
807.947	0.0896713
808.081	0.0916164
808.216	0.0908384
808.35	0.0894768
808.485	0.0890877
808.619	0.0892822
808.754	0.0881152
808.888	0.0873371
809.023	0.0894768
809.157	0.0914219
809.292	0.0902548
809.426	0.092589
809.561	0.0923945
809.695	0.0922
809.83	0.0918109
809.964	0.0916164
810.099	0.0920054
810.233	0.0912274
810.368	0.0949232
810.502	0.0941451
810.637	0.093367
810.771	0.0947287
810.906	0.0962848
811.04	0.0966738
811.175	0.0980354
811.309	0.0974519
811.444	0.102898
811.578	0.10037
811.713	0.104843
811.847	0.111651
811.982	0.168644
812.116	0.310251
812.251	0.267458
812.385	0.297802
812.519	0.670298
812.654	0.9858
812.788	0.810737
812.923	1
813.057	0.98794
813.192	0.671076
813.326	0.614861
813.461	0.63509
813.595	0.341957
813.73	0.146081
813.864	0.10815
813.999	0.117098
814.133	0.187901
814.268	0.241976
814.402	0.263762
814.537	0.142385
814.671	0.0962848
814.806	0.0945341
814.94	0.0923945
815.075	0.0918109
815.209	0.0918109
815.344	0.0896713
815.478	0.0916164
815.612	0.0916164
815.747	0.0923945
815.881	0.0937561
816.016	0.0898658
816.15	0.0916164
816.285	0.0945341
816.419	0.0877261
816.554	0.0912274
816.688	0.0908384
816.823	0.0912274
816.957	0.0902548
817.092	0.0894768
817.226	0.0890877
817.361	0.0875316
817.495	0.0885042
817.63	0.0900603
817.764	0.0890877
817.898	0.0904493
818.033	0.0879206
818.167	0.0898658
818.302	0.0890877
818.436	0.0881152
818.571	0.0888932
818.705	0.0906438
818.84	0.0904493
818.974	0.0912274
819.109	0.0879206
819.243	0.0892822
819.378	0.0904493
819.512	0.0863645
819.646	0.0867535
819.781	0.0908384
819.915	0.0875316
820.05	0.0888932
820.184	0.0894768
820.319	0.0902548
820.453	0.0894768
820.588	0.0886987
820.722	0.0886987
820.857	0.0881152
820.991	0.086559
821.126	0.0904493
821.26	0.0879206
821.394	0.0890877
821.529	0.0877261
821.663	0.0877261
821.798	0.0873371
821.932	0.0894768
822.067	0.0883097
822.201	0.0869481
822.336	0.0898658
822.47	0.0886987
822.605	0.0875316
822.739	0.0912274
822.873	0.0863645
823.008	0.0904493
823.142	0.0873371
823.277	0.0873371
823.411	0.0883097
823.546	0.0885042
823.68	0.0890877
823.815	0.0900603
823.949	0.0892822
824.083	0.0888932
824.218	0.0867535
824.352	0.0908384
824.487	0.0886987
824.621	0.0890877
824.756	0.0894768
824.89	0.0892822
825.025	0.0896713
825.159	0.0885042
825.293	0.0886987
825.428	0.0888932
825.562	0.0871426
825.697	0.0892822
825.831	0.0871426
825.966	0.0883097
826.1	0.0871426
826.235	0.0853919
826.369	0.0902548
826.503	0.0879206
826.638	0.08617
826.772	0.0900603
826.907	0.0879206
827.041	0.0892822
827.176	0.0886987
827.31	0.0869481
827.445	0.0890877
827.579	0.0896713
827.713	0.0883097
827.848	0.0873371
827.982	0.0871426
828.117	0.0885042
828.251	0.0885042
828.386	0.0904493
828.52	0.0886987
828.654	0.0892822
828.789	0.0879206
828.923	0.0875316
829.058	0.0881152
829.192	0.0883097
829.327	0.0875316
829.461	0.0894768
829.596	0.0904493
829.73	0.0890877
829.864	0.0883097
829.999	0.0879206
830.133	0.0869481
830.268	0.08617
830.402	0.0883097
830.537	0.0902548
830.671	0.0873371
830.805	0.0873371
830.94	0.0885042
831.074	0.0885042
831.209	0.0886987
831.343	0.0892822
831.478	0.0900603
831.612	0.0914219
831.746	0.0877261
831.881	0.0883097
832.015	0.0906438
832.15	0.0871426
832.284	0.086559
832.418	0.0883097
832.553	0.0867535
832.687	0.0886987
832.822	0.0885042
832.956	0.0883097
833.091	0.0881152
833.225	0.0875316
833.359	0.0883097
833.494	0.0888932
833.628	0.086559
833.763	0.0898658
833.897	0.0886987
834.032	0.0863645
834.166	0.0892822
834.3	0.0869481
834.435	0.0888932
834.569	0.0873371
834.704	0.0863645
834.838	0.0892822
834.972	0.0877261
835.107	0.0879206
835.241	0.0886987
835.376	0.086559
835.51	0.0904493
835.645	0.0867535
835.779	0.0883097
835.913	0.086559
836.048	0.0886987
836.182	0.0867535
836.317	0.0888932
836.451	0.0875316
836.585	0.0863645
836.72	0.0888932
836.854	0.0867535
836.989	0.0896713
837.123	0.0875316
837.257	0.0908384
837.392	0.0914219
837.526	0.0894768
837.661	0.0898658
837.795	0.0875316
837.929	0.0875316
838.064	0.0904493
838.198	0.0890877
838.333	0.0871426
838.467	0.0877261
838.602	0.0892822
838.736	0.0906438
838.87	0.0883097
839.005	0.0910329
839.139	0.0888932
839.274	0.0881152
839.408	0.0883097
839.542	0.0867535
839.677	0.0867535
839.811	0.0883097
839.946	0.0890877
840.08	0.0871426
840.214	0.0883097
840.349	0.0871426
840.483	0.0890877
840.618	0.085781
840.752	0.0888932
840.886	0.0886987
841.021	0.0885042
841.155	0.086559
841.29	0.086559
841.424	0.0898658
841.558	0.0886987
841.693	0.0873371
841.827	0.0873371
841.961	0.0923945
842.096	0.0879206
842.23	0.0867535
842.365	0.0892822
842.499	0.0896713
842.633	0.0873371
842.768	0.0918109
842.902	0.0886987
843.037	0.0869481
843.171	0.0879206
843.305	0.0879206
843.44	0.0894768
843.574	0.0855865
843.709	0.0871426
843.843	0.0888932
843.977	0.0848084
844.112	0.0863645
844.246	0.0886987
844.381	0.08617
844.515	0.0898658
844.649	0.0877261
844.784	0.0904493
844.918	0.0888932
845.052	0.0881152
845.187	0.0859755
845.321	0.0881152
845.456	0.0883097
845.59	0.0871426
845.724	0.0904493
845.859	0.0883097
845.993	0.0885042
846.128	0.0885042
846.262	0.08617
846.396	0.0904493
846.531	0.0885042
846.665	0.0881152
846.799	0.0867535
846.934	0.0885042
847.068	0.0873371
847.203	0.0863645
847.337	0.0886987
847.471	0.0877261
847.606	0.0871426
847.74	0.0871426
847.874	0.0888932
848.009	0.0904493
848.143	0.0918109
848.278	0.0869481
848.412	0.0898658
848.546	0.0890877
848.681	0.0883097
848.815	0.0890877
848.949	0.0881152
849.084	0.0908384
849.218	0.0883097
849.353	0.093367
849.487	0.0873371
849.621	0.08617
849.756	0.0869481
849.89	0.0900603
850.024	0.0867535
850.159	0.0881152
850.293	0.0855865
850.428	0.0879206
850.562	0.0877261
850.696	0.086559
850.831	0.0910329
850.965	0.085781
851.099	0.0879206
851.234	0.0863645
851.368	0.0898658
851.502	0.0877261
851.637	0.0885042
851.771	0.0906438
851.906	0.0869481
852.04	0.0885042
852.174	0.0867535
852.309	0.086559
852.443	0.0871426
852.577	0.086559
852.712	0.0910329
852.846	0.0883097
852.98	0.0871426
853.115	0.0875316
853.249	0.0871426
853.384	0.0908384
853.518	0.0875316
853.652	0.0892822
853.787	0.0902548
853.921	0.0914219
854.055	0.0873371
854.19	0.0892822
854.324	0.0879206
854.458	0.0883097
854.593	0.0877261
854.727	0.086559
854.861	0.0873371
854.996	0.0877261
855.13	0.0873371
855.265	0.0877261
855.399	0.0879206
855.533	0.08617
855.668	0.0871426
855.802	0.0900603
855.936	0.0871426
856.071	0.0896713
856.205	0.0871426
856.339	0.0855865
856.474	0.0875316
856.608	0.0871426
856.742	0.0885042
856.877	0.0879206
857.011	0.0875316
857.145	0.0898658
857.28	0.085781
857.414	0.0873371
857.549	0.0881152
857.683	0.0890877
857.817	0.0890877
857.952	0.0894768
858.086	0.0875316
858.22	0.0881152
858.355	0.0886987
858.489	0.0906438
858.623	0.0877261
858.758	0.0867535
858.892	0.0898658
859.026	0.0855865
859.161	0.0871426
859.295	0.0908384
859.429	0.086559
859.564	0.0894768
859.698	0.0871426
859.832	0.0863645
859.967	0.0886987
860.101	0.0869481
860.235	0.0877261
860.37	0.0885042
860.504	0.0883097
860.638	0.0867535
860.773	0.0879206
860.907	0.0869481
861.041	0.0890877
861.176	0.0877261
861.31	0.0894768
861.444	0.0869481
861.579	0.0873371
861.713	0.0886987
861.847	0.0875316
861.982	0.0900603
862.116	0.0888932
862.25	0.0848084
862.385	0.0879206
862.519	0.0898658
862.653	0.0875316
862.788	0.0867535
862.922	0.0885042
863.056	0.0881152
863.191	0.0863645
863.325	0.0892822
863.459	0.0898658
863.594	0.0873371
863.728	0.0877261
863.862	0.0855865
863.997	0.0869481
864.131	0.0867535
864.265	0.0877261
864.4	0.0890877
864.534	0.0877261
864.668	0.0885042
864.803	0.0863645
864.937	0.0871426
865.071	0.0879206
865.206	0.086559
865.34	0.0892822
865.474	0.0879206
865.609	0.0908384
865.743	0.0869481
865.877	0.0867535
866.012	0.0859755
866.146	0.0894768
866.28	0.0883097
866.415	0.08617
866.549	0.0885042
866.683	0.0910329
866.818	0.0863645
866.952	0.0883097
867.086	0.0900603
867.221	0.0859755
867.355	0.085781
867.489	0.0873371
867.623	0.0914219
867.758	0.0875316
867.892	0.0892822
868.026	0.0881152
868.161	0.0914219
868.295	0.0898658
868.429	0.08617
868.564	0.0851974
868.698	0.0888932
868.832	0.0885042
868.967	0.0898658
869.101	0.0886987
869.235	0.0879206
869.37	0.0867535
869.504	0.0879206
869.638	0.0902548
869.773	0.0871426
869.907	0.0890877
870.041	0.0869481
870.175	0.0869481
870.31	0.0881152
870.444	0.0885042
870.578	0.0900603
870.713	0.0910329
870.847	0.0886987
870.981	0.0853919
871.116	0.0890877
871.25	0.0885042
871.384	0.0877261
871.519	0.0898658
871.653	0.0867535
871.787	0.0918109
871.921	0.0898658
872.056	0.0886987
872.19	0.0896713
872.324	0.0890877
872.459	0.0890877
872.593	0.0877261
872.727	0.0888932
872.862	0.085781
872.996	0.0877261
873.13	0.0900603
873.264	0.0906438
873.399	0.0879206
873.533	0.085781
873.667	0.0873371
873.802	0.0896713
873.936	0.0885042
874.07	0.0908384
874.205	0.0886987
874.339	0.0886987
874.473	0.0885042
874.607	0.0922
874.742	0.0859755
874.876	0.0879206
875.01	0.0881152
875.145	0.0892822
875.279	0.0910329
875.413	0.0855865
875.548	0.0892822
875.682	0.0863645
875.816	0.0890877
875.95	0.0883097
876.085	0.0871426
876.219	0.0885042
876.353	0.0879206
876.488	0.0908384
876.622	0.0867535
876.756	0.086559
876.89	0.0879206
877.025	0.0879206
877.159	0.0885042
877.293	0.0896713
877.428	0.0888932
877.562	0.0863645
877.696	0.086559
877.83	0.0894768
877.965	0.0879206
878.099	0.0883097
878.233	0.0886987
878.368	0.0885042
878.502	0.0886987
878.636	0.0888932
878.77	0.0877261
878.905	0.0855865
879.039	0.0892822
879.173	0.0885042
879.308	0.08617
879.442	0.0886987
879.576	0.0892822
879.71	0.0875316
879.845	0.0869481
879.979	0.0875316
880.113	0.0875316
880.248	0.0867535
880.382	0.0834468
880.516	0.0900603
880.65	0.0904493
880.785	0.0890877
880.919	0.0871426
881.053	0.0875316
881.188	0.0898658
881.322	0.0916164
881.456	0.0881152
881.59	0.0869481
881.725	0.0888932
881.859	0.0875316
881.993	0.0873371
882.127	0.0886987
882.262	0.0881152
882.396	0.0885042
882.53	0.0855865
882.665	0.0867535
882.799	0.0892822
882.933	0.0871426
883.067	0.0898658
883.202	0.0877261
883.336	0.0894768
883.47	0.0879206
883.604	0.0879206
883.739	0.0871426
883.873	0.0886987
884.007	0.0875316
884.142	0.0885042
884.276	0.0867535
884.41	0.0879206
884.544	0.0855865
884.679	0.08617
884.813	0.0885042
884.947	0.0867535
885.081	0.0853919
885.216	0.0863645
885.35	0.0873371
885.484	0.0871426
885.618	0.0896713
885.753	0.0867535
885.887	0.0873371
886.021	0.086559
886.155	0.0912274
886.29	0.0888932
886.424	0.0875316
886.558	0.0888932
886.693	0.0879206
886.827	0.0886987
886.961	0.0920054
887.095	0.0886987
887.23	0.085781
887.364	0.0869481
887.498	0.0863645
887.632	0.085781
887.767	0.0877261
887.901	0.0867535
888.035	0.0892822
888.169	0.086559
888.304	0.0900603
888.438	0.0900603
888.572	0.0892822
888.706	0.0883097
888.841	0.0892822
888.975	0.0859755
889.109	0.085781
889.243	0.0912274
889.378	0.0873371
889.512	0.0877261
889.646	0.0846139
889.78	0.08617
889.915	0.086559
890.049	0.0902548
890.183	0.086559
890.317	0.0879206
890.452	0.0888932
890.586	0.0867535
890.72	0.0873371
890.854	0.0886987
890.989	0.0894768
891.123	0.0892822
891.257	0.0881152
891.391	0.0877261
891.526	0.0900603
891.66	0.0844194
891.794	0.0904493
891.928	0.0877261
892.063	0.0877261
892.197	0.0859755
892.331	0.0888932
892.465	0.0908384
892.6	0.0875316
892.734	0.0910329
892.868	0.0904493
893.002	0.0892822
893.137	0.0881152
893.271	0.0883097
893.405	0.0886987
893.539	0.0877261
893.674	0.0890877
893.808	0.0894768
893.942	0.0883097
894.076	0.0869481
894.21	0.0892822
894.345	0.0873371
894.479	0.0916164
894.613	0.0883097
894.747	0.0886987
894.882	0.0863645
895.016	0.0888932
895.15	0.0894768
895.284	0.0900603
895.419	0.0894768
895.553	0.0881152
895.687	0.086559
895.821	0.0892822
895.956	0.0877261
896.09	0.08617
896.224	0.0890877
896.358	0.0877261
896.492	0.0875316
896.627	0.0863645
896.761	0.0881152
896.895	0.085781
897.029	0.0885042
897.164	0.0892822
897.298	0.0851974
897.432	0.0892822
897.566	0.0906438
897.701	0.0873371
897.835	0.0883097
897.969	0.0869481
898.103	0.0885042
898.237	0.0885042
898.372	0.0900603
898.506	0.0877261
898.64	0.0890877
898.774	0.085781
898.909	0.0879206
899.043	0.0902548
899.177	0.0875316
899.311	0.0886987
899.445	0.0883097
899.58	0.0877261
899.714	0.0842249
899.848	0.0890877
899.982	0.0879206
900.117	0.0881152
900.251	0.0877261
900.385	0.0875316
900.519	0.0871426
900.653	0.0888932
900.788	0.0867535
900.922	0.0879206
901.056	0.0892822
901.19	0.0881152
901.325	0.0885042
901.459	0.0871426
901.593	0.0912274
901.727	0.0885042
901.861	0.0867535
901.996	0.0902548
902.13	0.0875316
902.264	0.0881152
902.398	0.0904493
902.532	0.0886987
902.667	0.0883097
902.801	0.0875316
902.935	0.0920054
903.069	0.0906438
903.204	0.0894768
903.338	0.0871426
903.472	0.085781
903.606	0.0885042
903.74	0.0886987
903.875	0.0890877
904.009	0.0886987
904.143	0.0879206
904.277	0.0888932
904.411	0.0894768
904.546	0.0896713
904.68	0.0863645
904.814	0.086559
904.948	0.0875316
905.082	0.0863645
905.217	0.0863645
905.351	0.0875316
905.485	0.0877261
905.619	0.0871426
905.753	0.0902548
905.888	0.0877261
906.022	0.0867535
906.156	0.0900603
906.29	0.0871426
906.424	0.0863645
906.559	0.0883097
906.693	0.0877261
906.827	0.085781
906.961	0.0888932
907.095	0.0888932
907.23	0.0869481
907.364	0.0900603
907.498	0.0885042
907.632	0.0908384
907.766	0.0881152
907.901	0.0896713
908.035	0.0892822
908.169	0.0875316
908.303	0.0877261
908.437	0.0890877
908.572	0.0888932
908.706	0.0890877
908.84	0.0850029
908.974	0.0890877
909.108	0.086559
909.243	0.0888932
909.377	0.0890877
909.511	0.0894768
909.645	0.085781
909.779	0.0892822
909.914	0.0867535
910.048	0.0906438
910.182	0.0890877
910.316	0.0904493
910.45	0.0879206
910.585	0.0896713
910.719	0.0873371
910.853	0.0890877
910.987	0.086559
911.121	0.0877261
911.255	0.0888932
911.39	0.0883097
911.524	0.0869481
911.658	0.0888932
911.792	0.0879206
911.926	0.0883097
912.061	0.086559
912.195	0.0910329
912.329	0.0863645
912.463	0.0894768
912.597	0.0873371
912.732	0.0890877
912.866	0.0892822
913	0.0898658
913.134	0.0883097
913.268	0.0875316
913.402	0.0886987
913.537	0.0867535
913.671	0.0855865
913.805	0.0879206
913.939	0.0892822
914.073	0.0892822
914.208	0.0885042
914.342	0.0894768
914.476	0.0853919
914.61	0.0871426
914.744	0.0844194
914.878	0.0883097
915.013	0.0898658
915.147	0.0898658
915.281	0.0875316
915.415	0.0886987
915.549	0.0873371
915.683	0.0873371
915.818	0.0900603
915.952	0.0855865
916.086	0.0855865
916.22	0.0914219
916.354	0.0855865
916.488	0.0883097
916.623	0.0898658
916.757	0.0869481
916.891	0.0871426
917.025	0.0892822
917.159	0.0920054
917.293	0.0904493
917.428	0.0886987
917.562	0.0888932
917.696	0.0886987
917.83	0.0881152
917.964	0.0871426
918.098	0.0890877
918.233	0.0869481
918.367	0.0888932
918.501	0.0848084
918.635	0.0883097
918.769	0.0892822
918.903	0.0902548
919.038	0.0873371
919.172	0.0877261
919.306	0.0885042
919.44	0.0906438
919.574	0.0885042
919.708	0.0867535
919.843	0.0879206
919.977	0.0879206
920.111	0.0871426
920.245	0.0900603
920.379	0.0846139
920.513	0.0902548
920.648	0.0859755
920.782	0.0867535
920.916	0.0931725
921.05	0.0871426
921.184	0.0867535
921.318	0.0904493
921.453	0.0896713
921.587	0.0892822
921.721	0.0869481
921.855	0.0875316
921.989	0.0883097
922.123	0.0879206
922.257	0.0894768
922.392	0.0867535
922.526	0.0890877
922.66	0.0863645
922.794	0.0877261
922.928	0.0867535
923.062	0.0875316
923.197	0.0898658
923.331	0.0842249
923.465	0.0886987
923.599	0.0879206
923.733	0.0886987
923.867	0.0879206
924.001	0.0890877
924.136	0.0906438
924.27	0.0873371
924.404	0.0869481
924.538	0.0885042
924.672	0.0869481
924.806	0.0867535
924.94	0.0859755
925.075	0.0902548
925.209	0.0875316
925.343	0.0881152
925.477	0.0871426
925.611	0.0890877
925.745	0.0912274
925.879	0.0902548
926.014	0.0871426
926.148	0.0885042
926.282	0.0863645
926.416	0.0885042
926.55	0.0888932
926.684	0.0883097
926.818	0.0883097
926.953	0.0892822
927.087	0.0886987
927.221	0.0898658
927.355	0.08617
927.489	0.0859755
927.623	0.0886987
927.757	0.0867535
927.892	0.0894768
928.026	0.0906438
928.16	0.0883097
928.294	0.0867535
928.428	0.085781
928.562	0.0875316
928.696	0.0894768
928.831	0.0908384
928.965	0.0888932
929.099	0.0902548
929.233	0.0881152
929.367	0.0875316
929.501	0.0863645
929.635	0.0869481
929.769	0.0867535
929.904	0.0904493
930.038	0.0873371
930.172	0.0883097
930.306	0.0886987
930.44	0.0890877
930.574	0.0890877
930.708	0.0873371
930.843	0.0898658
930.977	0.0877261
931.111	0.0867535
931.245	0.0877261
931.379	0.0875316
931.513	0.0863645
931.647	0.0863645
931.781	0.0883097
931.916	0.0873371
932.05	0.0883097
932.184	0.0877261
932.318	0.0904493
932.452	0.0869481
932.586	0.0855865
932.72	0.0879206
932.854	0.0912274
932.989	0.0834468
933.123	0.0873371
933.257	0.0886987
933.391	0.0871426
933.525	0.0886987
933.659	0.0859755
933.793	0.0877261
933.927	0.0885042
934.061	0.085781
934.196	0.0916164
934.33	0.0908384
934.464	0.0877261
934.598	0.0877261
934.732	0.093367
934.866	0.0906438
935	0.0879206
935.134	0.0892822
935.269	0.0853919
935.403	0.0914219
935.537	0.0900603
935.671	0.0896713
935.805	0.0890877
935.939	0.08617
936.073	0.0916164
936.207	0.0871426
936.341	0.0873371
936.476	0.086559
936.61	0.0883097
936.744	0.0877261
936.878	0.0906438
937.012	0.0863645
937.146	0.0881152
937.28	0.0892822
937.414	0.0883097
937.548	0.0902548
937.683	0.0885042
937.817	0.086559
937.951	0.0890877
938.085	0.0863645
938.219	0.0886987
938.353	0.0869481
938.487	0.0877261
938.621	0.0888932
938.755	0.0916164
938.889	0.0892822
939.024	0.0863645
939.158	0.0918109
939.292	0.0894768
939.426	0.0896713
939.56	0.0888932
939.694	0.0902548
939.828	0.0885042
939.962	0.0883097
940.096	0.0873371
940.231	0.0863645
940.365	0.0855865
940.499	0.0873371
940.633	0.0869481
940.767	0.0879206
940.901	0.0877261
941.035	0.0863645
941.169	0.0881152
941.303	0.0875316
941.437	0.0867535
941.571	0.086559
941.706	0.085781
941.84	0.0888932
941.974	0.0867535
942.108	0.0885042
942.242	0.0898658
942.376	0.0873371
942.51	0.0873371
942.644	0.0855865
942.778	0.0894768
942.912	0.0906438
943.047	0.0914219
943.181	0.0869481
943.315	0.0892822
943.449	0.0873371
943.583	0.0869481
943.717	0.0894768
943.851	0.0886987
943.985	0.0890877
944.119	0.0894768
944.253	0.0877261
944.387	0.0910329
944.522	0.0896713
944.656	0.0881152
944.79	0.0894768
944.924	0.0875316
945.058	0.086559
945.192	0.0875316
945.326	0.0877261
945.46	0.08617
945.594	0.0885042
945.728	0.0886987
945.862	0.0906438
945.996	0.0904493
946.131	0.0879206
946.265	0.0900603
946.399	0.0883097
946.533	0.0896713
946.667	0.0867535
946.801	0.0871426
946.935	0.0867535
947.069	0.0853919
947.203	0.0881152
947.337	0.0890877
947.471	0.0881152
947.605	0.0877261
947.739	0.0900603
947.874	0.0900603
948.008	0.0877261
948.142	0.0894768
948.276	0.0886987
948.41	0.086559
948.544	0.0888932
948.678	0.0883097
948.812	0.0898658
948.946	0.0888932
949.08	0.0906438
949.214	0.0867535
949.348	0.0875316
949.482	0.0898658
949.617	0.0886987
949.751	0.0881152
949.885	0.0904493
950.019	0.0881152
950.153	0.0867535
950.287	0.0896713
950.421	0.0867535
950.555	0.0848084
950.689	0.0879206
950.823	0.0912274
950.957	0.0869481
951.091	0.0894768
951.225	0.0892822
951.359	0.0881152
951.493	0.0877261
951.628	0.0888932
951.762	0.0885042
951.896	0.0881152
952.03	0.0869481
952.164	0.092589
952.298	0.0906438
952.432	0.0886987
952.566	0.0908384
952.7	0.0898658
952.834	0.0850029
952.968	0.0881152
953.102	0.0890877
953.236	0.0869481
953.37	0.0904493
953.504	0.0877261
953.639	0.0894768
953.773	0.0896713
953.907	0.0896713
954.041	0.08617
954.175	0.0894768
954.309	0.0881152
954.443	0.0867535
954.577	0.0869481
954.711	0.0886987
954.845	0.0896713
954.979	0.0885042
955.113	0.0890877
955.247	0.0851974
955.381	0.0886987
955.515	0.0896713
955.649	0.0888932
955.783	0.0902548
955.917	0.0885042
956.052	0.0871426
956.186	0.0871426
956.32	0.0894768
956.454	0.0923945
956.588	0.0867535
956.722	0.0890877
956.856	0.0883097
956.99	0.0894768
957.124	0.0873371
957.258	0.0896713
957.392	0.0883097
957.526	0.0855865
957.66	0.0906438
957.794	0.0881152
957.928	0.0873371
958.062	0.0859755
958.196	0.0885042
958.33	0.0906438
958.464	0.0875316
958.598	0.0883097
958.733	0.0886987
958.867	0.0892822
959.001	0.0898658
959.135	0.0869481
959.269	0.0890877
959.403	0.0873371
959.537	0.0902548
959.671	0.085781
959.805	0.0885042
959.939	0.0885042
960.073	0.0894768
960.207	0.0918109
960.341	0.0859755
960.475	0.0912274
960.609	0.0892822
960.743	0.085781
960.877	0.0879206
961.011	0.0875316
961.145	0.0879206
961.279	0.0867535
961.413	0.0890877
961.547	0.0902548
961.681	0.0890877
961.815	0.0886987
961.949	0.0885042
962.083	0.0886987
962.218	0.0875316
962.352	0.0890877
962.486	0.0908384
962.62	0.0886987
962.754	0.0873371
962.888	0.0879206
963.022	0.0844194
963.156	0.0850029
963.29	0.0894768
963.424	0.0877261
963.558	0.0863645
963.692	0.0900603
963.826	0.0873371
963.96	0.0881152
964.094	0.0885042
964.228	0.0896713
964.362	0.0894768
964.496	0.0867535
964.63	0.0894768
964.764	0.0863645
964.898	0.0879206
965.032	0.0906438
965.166	0.0888932
965.3	0.0900603
965.434	0.0885042
965.568	0.0885042
965.702	0.0879206
965.836	0.0904493
965.97	0.0873371
966.104	0.0877261
966.238	0.0875316
966.372	0.0853919
966.506	0.0885042
966.64	0.0898658
966.774	0.0885042
966.908	0.0888932
967.043	0.086559
967.177	0.0894768
967.311	0.0869481
967.445	0.0875316
967.579	0.0885042
967.713	0.0892822
967.847	0.0838358
967.981	0.0894768
968.115	0.0873371
968.249	0.0879206
968.383	0.085781
968.517	0.0877261
968.651	0.0871426
968.785	0.0877261
968.919	0.0885042
969.053	0.0846139
969.187	0.0877261
969.321	0.0886987
969.455	0.0877261
969.589	0.0896713
969.723	0.0896713
969.857	0.0935616
969.991	0.0873371
970.125	0.0908384
970.259	0.0871426
970.393	0.0855865
970.527	0.0892822
970.661	0.0900603
970.795	0.0883097
970.929	0.0875316
971.063	0.0892822
971.197	0.0896713
971.331	0.0892822
971.465	0.0881152
971.599	0.0877261
971.733	0.0892822
971.867	0.0892822
972.001	0.0912274
972.135	0.0898658
972.269	0.0908384
972.403	0.0879206
972.537	0.0875316
972.671	0.0859755
972.805	0.0890877
972.939	0.0894768
973.073	0.0875316
973.207	0.0888932
973.341	0.0900603
973.475	0.0886987
973.609	0.0885042
973.743	0.0890877
973.877	0.0877261
974.011	0.0873371
974.145	0.0890877
974.279	0.0848084
974.413	0.0888932
974.547	0.0867535
974.681	0.0898658
974.815	0.0875316
974.949	0.0888932
975.083	0.086559
975.217	0.0875316
975.351	0.0881152
975.485	0.0875316
975.619	0.0900603
975.753	0.0892822
975.887	0.0892822
976.021	0.0886987
976.155	0.0898658
976.289	0.0885042
976.423	0.0883097
976.557	0.0871426
976.691	0.0896713
976.825	0.086559
976.959	0.0918109
977.093	0.0904493
977.227	0.0883097
977.361	0.0875316
977.495	0.0886987
977.629	0.0885042
977.763	0.0894768
977.897	0.0894768
978.031	0.0886987
978.165	0.0900603
978.299	0.0904493
978.433	0.0879206
978.567	0.0867535
978.701	0.0885042
978.835	0.0869481
978.969	0.0898658
979.103	0.0875316
979.237	0.0885042
979.371	0.0879206
979.505	0.0877261
979.639	0.0877261
979.773	0.0885042
979.907	0.0886987
980.041	0.0902548
980.175	0.0853919
980.308	0.0888932
980.442	0.0875316
980.576	0.0871426
980.71	0.0885042
980.844	0.0916164
980.978	0.0877261
981.112	0.0894768
981.246	0.0879206
981.38	0.0888932
981.514	0.0900603
981.648	0.0851974
981.782	0.0867535
981.916	0.0859755
982.05	0.0890877
982.184	0.0877261
982.318	0.0890877
982.452	0.0879206
982.586	0.0863645
982.72	0.0881152
982.854	0.0877261
982.988	0.0892822
983.122	0.0855865
983.256	0.0883097
983.39	0.0877261
983.524	0.0896713
983.658	0.0871426
983.792	0.0916164
983.926	0.086559
984.06	0.0850029
984.194	0.086559
984.328	0.0879206
984.462	0.0883097
984.596	0.0886987
984.73	0.0844194
984.864	0.0898658
984.998	0.0883097
985.132	0.086559
985.265	0.0879206
985.399	0.0869481
985.533	0.0877261
985.667	0.0890877
985.801	0.0867535
985.935	0.0902548
986.069	0.0877261
986.203	0.0888932
986.337	0.0892822
986.471	0.0892822
986.605	0.0883097
986.739	0.0912274
986.873	0.0877261
987.007	0.08617
987.141	0.0871426
987.275	0.0900603
987.409	0.0873371
987.543	0.0875316
987.677	0.08617
987.811	0.0881152
987.945	0.0867535
988.079	0.0898658
988.213	0.0877261
988.347	0.0879206
988.481	0.0867535
988.614	0.0888932
988.748	0.0914219
988.882	0.0890877
989.016	0.0894768
989.15	0.0886987
989.284	0.0869481
989.418	0.0900603
989.552	0.0883097
989.686	0.0867535
989.82	0.0855865
989.954	0.0900603
990.088	0.0883097
990.222	0.0888932
990.356	0.0863645
990.49	0.0859755
990.624	0.0859755
990.758	0.0890877
990.892	0.0869481
991.026	0.0890877
991.16	0.0881152
991.294	0.0914219
991.427	0.0873371
991.561	0.0873371
991.695	0.0832523
991.829	0.0888932
991.963	0.0875316
992.097	0.0904493
992.231	0.0888932
992.365	0.0898658
992.499	0.0881152
992.633	0.0873371
992.767	0.0877261
992.901	0.0867535
993.035	0.0881152
993.169	0.0873371
993.303	0.0892822
993.437	0.0906438
993.571	0.085781
993.704	0.0886987
993.838	0.0873371
993.972	0.0863645
994.106	0.086559
994.24	0.0871426
994.374	0.0890877
994.508	0.0902548
994.642	0.0888932
994.776	0.0873371
994.91	0.0922
995.044	0.0859755
995.178	0.0898658
995.312	0.0892822
995.446	0.0883097
995.58	0.0883097
995.714	0.0888932
995.847	0.0879206
995.981	0.0879206
996.115	0.0902548
996.249	0.0873371
996.383	0.0851974
996.517	0.0896713
996.651	0.0894768
996.785	0.0881152
996.919	0.08617
997.053	0.0890877
997.187	0.0904493
997.321	0.0879206
997.455	0.08617
997.589	0.0869481
997.722	0.0883097
997.856	0.0886987
997.99	0.0883097
998.124	0.0869481
998.258	0.0885042
998.392	0.0914219
998.526	0.0883097
998.66	0.0881152
998.794	0.0885042
998.928	0.0883097
999.062	0.0871426
999.196	0.0900603
999.33	0.0869481
999.464	0.0890877
999.597	0.0888932
999.731	0.0910329
999.865	0.0886987
999.999	0.086559
1000.13	0.0883097
1000.27	0.0881152
1000.4	0.0885042
1000.53	0.0890877
1000.67	0.0863645
1000.8	0.0902548
1000.94	0.0894768
1001.07	0.0873371
1001.2	0.0844194
1001.34	0.0888932
1001.47	0.086559
1001.61	0.0885042
1001.74	0.086559
1001.87	0.0879206
1002.01	0.0867535
1002.14	0.085781
1002.28	0.0879206
1002.41	0.0871426
1002.54	0.0875316
1002.68	0.0885042
1002.81	0.0883097
1002.95	0.0863645
1003.08	0.0881152
1003.21	0.0894768
1003.35	0.0879206
1003.48	0.0853919
1003.61	0.0888932
1003.75	0.0855865
1003.88	0.0883097
1004.02	0.0877261
1004.15	0.0898658
1004.28	0.0881152
1004.42	0.08617
1004.55	0.0877261
1004.69	0.0873371
1004.82	0.0879206
1004.95	0.0902548
1005.09	0.0906438
1005.22	0.0867535
1005.36	0.0875316
1005.49	0.0885042
1005.62	0.0867535
1005.76	0.0910329
1005.89	0.0883097
1006.03	0.0888932
1006.16	0.0881152
1006.29	0.0892822
1006.43	0.0888932
1006.56	0.0886987
1006.69	0.0879206
1006.83	0.0877261
1006.96	0.0883097
1007.1	0.0886987
1007.23	0.0902548
1007.36	0.0888932
1007.5	0.0886987
1007.63	0.0879206
1007.77	0.0873371
1007.9	0.0910329
1008.03	0.0888932
1008.17	0.0871426
1008.3	0.0869481
1008.44	0.0892822
1008.57	0.0853919
1008.7	0.0885042
1008.84	0.0867535
1008.97	0.0890877
1009.1	0.0885042
1009.24	0.0892822
1009.37	0.0879206
1009.51	0.0886987
1009.64	0.0875316
1009.77	0.0886987
1009.91	0.0875316
1010.04	0.092589
1010.18	0.0894768
1010.31	0.0894768
1010.44	0.0890877
1010.58	0.0875316
1010.71	0.0898658
1010.85	0.0873371
1010.98	0.085781
1011.11	0.0896713
1011.25	0.0906438
1011.38	0.0879206
1011.51	0.0886987
1011.65	0.0894768
1011.78	0.0867535
1011.92	0.0890877
1012.05	0.086559
1012.18	0.0885042
1012.32	0.0867535
1012.45	0.0873371
1012.59	0.0883097
1012.72	0.0900603
1012.85	0.0900603
1012.99	0.0883097
1013.12	0.0894768
1013.26	0.0886987
1013.39	0.0877261
1013.52	0.0898658
1013.66	0.0896713
1013.79	0.0883097
1013.92	0.0890877
1014.06	0.0900603
1014.19	0.0867535
1014.33	0.0916164
1014.46	0.085781
1014.59	0.0890877
1014.73	0.0851974
1014.86	0.0904493
1015	0.0898658
1015.13	0.0900603
1015.26	0.0927835
1015.4	0.0883097
1015.53	0.0883097
1015.67	0.0916164
1015.8	0.0869481
1015.93	0.0894768
1016.07	0.0881152
1016.2	0.0867535
1016.33	0.0890877
1016.47	0.0879206
1016.6	0.0863645
1016.74	0.0886987
1016.87	0.0922
1017	0.0908384
1017.14	0.0912274
1017.27	0.0871426
1017.41	0.0883097
1017.54	0.0867535
1017.67	0.0871426
1017.81	0.08617
1017.94	0.0885042
1018.07	0.0886987
1018.21	0.0875316
1018.34	0.0908384
1018.48	0.0890877
1018.61	0.0908384
1018.74	0.0863645
1018.88	0.0877261
1019.01	0.0879206
1019.15	0.0886987
1019.28	0.0869481
1019.41	0.0896713
1019.55	0.0855865
1019.68	0.0883097
1019.82	0.0892822
1019.95	0.0916164
1020.08	0.0863645
1020.22	0.0918109
1020.35	0.0906438
1020.48	0.0879206
1020.62	0.0904493
1020.75	0.0881152
1020.89	0.0894768
1021.02	0.08617
1021.15	0.0877261
1021.29	0.0877261
1021.42	0.0881152
1021.56	0.0886987
1021.69	0.0883097
1021.82	0.0888932
1021.96	0.0885042
1022.09	0.0896713
1022.22	0.0859755
1022.36	0.0877261
1022.49	0.086559
1022.63	0.0869481
1022.76	0.0873371
1022.89	0.0888932
1023.03	0.0881152
1023.16	0.0879206
1023.3	0.0890877
1023.43	0.0890877
1023.56	0.0869481
1023.7	0.0869481
1023.83	0.0871426
1023.96	0.0867535
1024.1	0.0898658
1024.23	0.0894768
1024.37	0.0883097
1024.5	0.0871426
1024.63	0.0894768
1024.77	0.0908384
1024.9	0.0892822
1025.04	0.0908384
1025.17	0.0877261
1025.3	0.0904493
1025.44	0.0900603
1025.57	0.0869481
1025.7	0.0859755
1025.84	0.0873371
1025.97	0.0902548
1026.11	0.0902548
1026.24	0.0883097
1026.37	0.0875316
1026.51	0.0877261
1026.64	0.0906438
1026.78	0.0888932
1026.91	0.0896713
1027.04	0.0885042
1027.18	0.0888932
1027.31	0.0898658
1027.44	0.0902548
1027.58	0.0883097
1027.71	0.0910329
1027.85	0.0883097
1027.98	0.0875316
1028.11	0.0853919
1028.25	0.0875316
1028.38	0.0883097
1028.52	0.0883097
1028.65	0.0890877
1028.78	0.0894768
1028.92	0.0846139
1029.05	0.0888932
1029.18	0.0892822
1029.32	0.0877261
1029.45	0.0896713
1029.59	0.0900603
1029.72	0.0871426
1029.85	0.0877261
1029.99	0.0890877
1030.12	0.0894768
1030.26	0.0875316
1030.39	0.0890877
1030.52	0.0900603
1030.66	0.0875316
1030.79	0.0883097
1030.92	0.0888932
1031.06	0.0859755
1031.19	0.0910329
1031.33	0.0894768
1031.46	0.0890877
1031.59	0.08617
1031.73	0.0871426
1031.86	0.0879206
1031.99	0.0877261
1032.13	0.0892822
1032.26	0.0855865
1032.4	0.0875316
1032.53	0.0892822
1032.66	0.0863645
1032.8	0.0902548
1032.93	0.0890877
1033.07	0.0875316
1033.2	0.0890877
1033.33	0.0869481
1033.47	0.0883097
1033.6	0.0873371
1033.73	0.0888932
1033.87	0.0869481
1034	0.0879206
1034.14	0.0859755
1034.27	0.0863645
1034.4	0.0894768
1034.54	0.0877261
1034.67	0.0883097
1034.81	0.086559
1034.94	0.0885042
1035.07	0.0871426
1035.21	0.0879206
1035.34	0.0867535
1035.47	0.0902548
1035.61	0.0869481
1035.74	0.0898658
1035.88	0.0892822
1036.01	0.0871426
1036.14	0.0883097
1036.28	0.0883097
1036.41	0.0892822
1036.54	0.0871426
1036.68	0.0877261
1036.81	0.0871426
1036.95	0.0875316
1037.08	0.0896713
1037.21	0.0883097
1037.35	0.0881152
1037.48	0.0888932
1037.62	0.0869481
1037.75	0.0888932
1037.88	0.0888932
1038.02	0.0883097
1038.15	0.0863645
1038.28	0.0904493
1038.42	0.0873371
1038.55	0.0873371
1038.69	0.0896713
1038.82	0.0892822
1038.95	0.0873371
1039.09	0.0888932
1039.22	0.0904493
1039.35	0.0892822
1039.49	0.0904493
1039.62	0.0881152
1039.76	0.0879206
1039.89	0.08617
1040.02	0.0879206
1040.16	0.0875316
1040.29	0.085781
1040.43	0.0881152
1040.56	0.0867535
1040.69	0.0879206
1040.83	0.0890877
1040.96	0.0875316
1041.09	0.0871426
1041.23	0.0883097
1041.36	0.0902548
1041.5	0.0873371
1041.63	0.0883097
1041.76	0.0916164
1041.9	0.0900603
1042.03	0.0881152
1042.16	0.0877261
1042.3	0.0885042
1042.43	0.0859755
1042.57	0.0869481
1042.7	0.0871426
1042.83	0.0871426
1042.97	0.0888932
1043.1	0.085781
1043.23	0.0883097
1043.37	0.0881152
1043.5	0.0902548
1043.64	0.086559
1043.77	0.0896713
1043.9	0.0888932
1044.04	0.0904493
1044.17	0.0898658
1044.31	0.0894768
1044.44	0.0877261
1044.57	0.0896713
1044.71	0.0888932
1044.84	0.0877261
1044.97	0.0896713
1045.11	0.0885042
1045.24	0.0886987
1045.38	0.0850029
1045.51	0.0867535
1045.64	0.0904493
1045.78	0.0877261
1045.91	0.0890877
1046.04	0.0896713
1046.18	0.0898658
1046.31	0.0886987
1046.45	0.0883097
1046.58	0.0869481
1046.71	0.0898658
1046.85	0.0863645
1046.98	0.0886987
1047.11	0.0863645
1047.25	0.0890877
1047.38	0.0896713
1047.52	0.0881152
1047.65	0.0879206
1047.78	0.0875316
1047.92	0.0896713
1048.05	0.0888932
1048.18	0.0890877
1048.32	0.0859755
1048.45	0.0875316
1048.59	0.0888932
1048.72	0.0877261
1048.85	0.0890877
1048.99	0.0918109
1049.12	0.0877261
1049.25	0.0886987
1049.39	0.0914219
1049.52	0.0873371
1049.66	0.0873371
1049.79	0.0900603
1049.92	0.0879206
1050.06	0.0873371
1050.19	0.0894768
1050.33	0.0869481
1050.46	0.0886987
1050.59	0.0894768
1050.73	0.0900603
1050.86	0.0881152
1050.99	0.0871426
1051.13	0.0873371
1051.26	0.0902548
1051.4	0.0902548
1051.53	0.0890877
1051.66	0.0863645
1051.8	0.0892822
1051.93	0.0892822
1052.06	0.0871426
1052.2	0.0877261
1052.33	0.0898658
1052.47	0.0877261
1052.6	0.0892822
1052.73	0.0883097
1052.87	0.0879206
1053	0.0881152
1053.13	0.086559
1053.27	0.086559
1053.4	0.0869481
1053.54	0.0885042
1053.67	0.0896713
1053.8	0.0910329
1053.94	0.0902548
1054.07	0.0896713
1054.2	0.0877261
1054.34	0.0871426
1054.47	0.0875316
1054.61	0.0877261
1054.74	0.0873371
1054.87	0.0914219
1055.01	0.0904493
1055.14	0.0906438
1055.27	0.0910329
1055.41	0.0906438
1055.54	0.0886987
1055.68	0.0902548
1055.81	0.0906438
1055.94	0.086559
1056.08	0.0877261
1056.21	0.0898658
1056.34	0.086559
1056.48	0.0875316
1056.61	0.0902548
1056.75	0.0873371
1056.88	0.0869481
1057.01	0.0851974
1057.15	0.0873371
1057.28	0.0883097
1057.41	0.0879206
1057.55	0.0890877
1057.68	0.0885042
1057.82	0.0883097
1057.95	0.0867535
1058.08	0.0888932
1058.22	0.0859755
1058.35	0.0898658
1058.48	0.0906438
1058.62	0.0892822
1058.75	0.0881152
1058.89	0.0904493
1059.02	0.0888932
1059.15	0.08617
1059.29	0.0883097
1059.42	0.0892822
1059.55	0.0885042
1059.69	0.0896713
1059.82	0.0871426
1059.96	0.0855865
1060.09	0.0859755
1060.22	0.0892822
1060.36	0.0890877
1060.49	0.092589
1060.62	0.0873371
1060.76	0.0892822
1060.89	0.0892822
1061.03	0.0875316
1061.16	0.0877261
1061.29	0.0877261
1061.43	0.08617
1061.56	0.0886987
1061.69	0.0869481
1061.83	0.0875316
1061.96	0.092589
1062.1	0.0912274
1062.23	0.0894768
1062.36	0.0873371
1062.5	0.085781
1062.63	0.0885042
1062.76	0.0892822
1062.9	0.0863645
1063.03	0.0859755
1063.17	0.0886987
1063.3	0.0886987
1063.43	0.0881152
1063.57	0.0912274
1063.7	0.0875316
1063.83	0.0885042
1063.97	0.0850029
1064.1	0.0886987
1064.23	0.0859755
1064.37	0.0890877
1064.5	0.0908384
1064.64	0.0894768
1064.77	0.0916164
1064.9	0.0883097
1065.04	0.0873371
1065.17	0.0888932
1065.3	0.0890877
1065.44	0.0881152
1065.57	0.086559
1065.71	0.0881152
1065.84	0.0871426
1065.97	0.0881152
1066.11	0.0883097
1066.24	0.0879206
1066.37	0.0898658
1066.51	0.0867535
1066.64	0.0900603
1066.78	0.0906438
1066.91	0.0873371
1067.04	0.0896713
1067.18	0.0867535
1067.31	0.0885042
1067.44	0.0904493
1067.58	0.0881152
1067.71	0.0898658
1067.85	0.0894768
1067.98	0.0883097
1068.11	0.0898658
1068.25	0.0886987
1068.38	0.0846139
1068.51	0.0916164
1068.65	0.0890877
1068.78	0.0871426
1068.92	0.0883097
1069.05	0.0888932
1069.18	0.0888932
1069.32	0.0906438
1069.45	0.0902548
1069.58	0.0888932
1069.72	0.0875316
1069.85	0.0886987
1069.98	0.0873371
1070.12	0.0863645
1070.25	0.0886987
1070.39	0.0855865
1070.52	0.0877261
1070.65	0.0883097
1070.79	0.0846139
1070.92	0.0888932
1071.05	0.0888932
1071.19	0.0877261
1071.32	0.0886987
1071.46	0.0879206
1071.59	0.0888932
1071.72	0.0890877
1071.86	0.0883097
1071.99	0.08617
1072.12	0.0886987
1072.26	0.0885042
1072.39	0.0888932
1072.53	0.0867535
1072.66	0.0906438
1072.79	0.0871426
1072.93	0.0898658
1073.06	0.0881152
1073.19	0.0844194
1073.33	0.0898658
1073.46	0.0875316
1073.59	0.0888932
1073.73	0.0863645
1073.86	0.0883097
1074	0.0867535
1074.13	0.0863645
1074.26	0.0886987
1074.4	0.086559
1074.53	0.0863645
1074.66	0.0898658
1074.8	0.0886987
1074.93	0.0892822
1075.07	0.0879206
1075.2	0.0883097
1075.33	0.0908384
1075.47	0.0881152
1075.6	0.0906438
1075.73	0.0867535
1075.87	0.0885042
1076	0.0892822
1076.14	0.0888932
1076.27	0.0890877
1076.4	0.0904493
1076.54	0.0875316
1076.67	0.0883097
1076.8	0.0879206
1076.94	0.0885042
1077.07	0.0883097
1077.2	0.08617
1077.34	0.0883097
1077.47	0.0881152
1077.61	0.0863645
1077.74	0.0877261
1077.87	0.0867535
1078.01	0.0875316
1078.14	0.0885042
1078.27	0.0863645
1078.41	0.0879206
1078.54	0.0894768
1078.68	0.0883097
1078.81	0.0888932
1078.94	0.0867535
1079.08	0.0867535
1079.21	0.0908384
1079.34	0.0853919
1079.48	0.0892822
1079.61	0.0873371
1079.74	0.0896713
1079.88	0.0890877
1080.01	0.0877261
1080.15	0.0886987
1080.28	0.0859755
1080.41	0.0890877
1080.55	0.0890877
1080.68	0.0871426
1080.81	0.0867535
1080.95	0.0892822
1081.08	0.0869481
1081.22	0.0873371
1081.35	0.0881152
1081.48	0.0918109
1081.62	0.0873371
1081.75	0.0908384
1081.88	0.086559
1082.02	0.0885042
1082.15	0.0898658
1082.28	0.0867535
1082.42	0.0896713
1082.55	0.0879206
1082.69	0.0853919
1082.82	0.0879206
1082.95	0.0875316
1083.09	0.0881152
1083.22	0.0863645
1083.35	0.0894768
1083.49	0.0898658
1083.62	0.0892822
1083.75	0.0900603
1083.89	0.0881152
1084.02	0.0851974
1084.16	0.0883097
1084.29	0.0869481
1084.42	0.086559
1084.56	0.0892822
1084.69	0.0869481
1084.82	0.0896713
1084.96	0.0896713
1085.09	0.0892822
1085.23	0.0894768
1085.36	0.0892822
1085.49	0.0875316
1085.63	0.0890877
1085.76	0.0875316
1085.89	0.0900603
1086.03	0.0855865
1086.16	0.0892822
1086.29	0.0873371
1086.43	0.0877261
1086.56	0.08617
1086.7	0.0910329
1086.83	0.0890877
1086.96	0.0863645
1087.1	0.0898658
1087.23	0.0879206
1087.36	0.0888932
1087.5	0.0886987
1087.63	0.0869481
1087.76	0.0888932
1087.9	0.086559
1088.03	0.0877261
1088.17	0.0886987
1088.3	0.0851974
1088.43	0.0885042
1088.57	0.0898658
1088.7	0.0867535
1088.83	0.0886987
1088.97	0.0883097
1089.1	0.0881152
1089.24	0.0867535
1089.37	0.0871426
1089.5	0.0892822
1089.64	0.0869481
1089.77	0.0908384
1089.9	0.0863645
1090.04	0.0902548
1090.17	0.0896713
1090.3	0.086559
1090.44	0.0890877
1090.57	0.0877261
1090.71	0.0896713
1090.84	0.0900603
1090.97	0.0886987
1091.11	0.0885042
1091.24	0.0890877
1091.37	0.0869481
1091.51	0.0881152
1091.64	0.0871426
1091.77	0.0916164
1091.91	0.0879206
1092.04	0.0873371
1092.18	0.086559
1092.31	0.0869481
1092.44	0.0885042
1092.58	0.0904493
1092.71	0.093367
1092.84	0.0875316
1092.98	0.0914219
1093.11	0.0877261
1093.24	0.0863645
1093.38	0.0888932
1093.51	0.0875316
1093.65	0.0879206
1093.78	0.0883097
1093.91	0.086559
1094.05	0.0883097
1094.18	0.0900603
1094.31	0.0918109
1094.45	0.0906438
1094.58	0.0871426
1094.71	0.0888932
1094.85	0.0886987
1094.98	0.0890877
1095.12	0.0855865
1095.25	0.0888932
1095.38	0.0904493
1095.52	0.0869481
1095.65	0.0863645
1095.78	0.0877261
1095.92	0.0888932
1096.05	0.0877261
1096.18	0.0886987
1096.32	0.08617
1096.45	0.0877261
1096.59	0.0879206
1096.72	0.0892822
1096.85	0.08617
1096.99	0.0885042
1097.12	0.0898658
1097.25	0.0869481
1097.39	0.0892822
1097.52	0.0886987
1097.65	0.0863645
1097.79	0.0851974
1097.92	0.085781
1098.06	0.086559
1098.19	0.0873371
1098.32	0.0869481
1098.46	0.0875316
1098.59	0.0894768
1098.72	0.0873371
1098.86	0.0883097
1098.99	0.0881152
1099.12	0.0900603
1099.26	0.0885042
1099.39	0.0877261
1099.53	0.0908384
1099.66	0.0873371
1099.79	0.0900603
1099.93	0.0910329
1100.06	0.085781
1100.19	0.0859755
1100.33	0.08617
1100.46	0.0867535
1100.59	0.0855865
1100.73	0.0853919
1100.86	0.0902548
1100.99	0.0873371
1101.13	0.08617
1101.26	0.0883097
1101.4	0.0900603
1101.53	0.0871426
1101.66	0.0881152
1101.8	0.0892822
1101.93	0.0881152
1102.06	0.0875316
1102.2	0.0855865
1102.33	0.0883097
1102.46	0.0883097
1102.6	0.0873371
1102.73	0.0851974
1102.87	0.0871426
1103	0.085781
1103.13	0.0902548
1103.27	0.0900603
1103.4	0.0900603
1103.53	0.0875316
1103.67	0.0859755
1103.8	0.0898658
1103.93	0.0890877
1104.07	0.0867535
1104.2	0.0881152
1104.34	0.0896713
1104.47	0.0896713
1104.6	0.0879206
1104.74	0.0896713
1104.87	0.0877261
1105	0.0881152
1105.14	0.0881152
1105.27	0.0892822
1105.4	0.0888932
1105.54	0.0892822
1105.67	0.086559
1105.8	0.0900603
1105.94	0.0873371
1106.07	0.0900603
1106.21	0.0902548
1106.34	0.08617
1106.47	0.0888932
1106.61	0.0885042
1106.74	0.0873371
1106.87	0.0867535
1107.01	0.0886987
1107.14	0.0873371
1107.27	0.0890877
1107.41	0.0875316
1107.54	0.0890877

