Source: Spectrum Viewer

Chart: Pulse Spectrum

Series: 
Wavelength (nm)	S (a.u.)
617.638	0.0509953
617.773	0.0514426
617.908	0.0511071
618.043	0.0507716
618.178	0.0506598
618.313	0.0499888
618.448	0.0517781
618.583	0.051219
618.718	0.0521136
618.853	0.0502125
618.988	0.0506598
619.123	0.0488705
619.258	0.0506598
619.394	0.0507716
619.529	0.0513308
619.664	0.0516663
619.799	0.0508835
619.934	0.0504361
620.069	0.0507716
620.204	0.0525609
620.339	0.0497652
620.474	0.0504361
620.609	0.0514426
620.744	0.049206
620.879	0.0504361
621.014	0.0493178
621.149	0.0501006
621.284	0.0507716
621.419	0.0513308
621.554	0.0513308
621.689	0.0515545
621.825	0.0495415
621.96	0.0504361
622.095	0.0504361
622.23	0.0508835
622.365	0.05189
622.5	0.0503243
622.635	0.049877
622.77	0.0521136
622.905	0.0514426
623.04	0.049877
623.175	0.0507716
623.31	0.0507716
623.445	0.0493178
623.58	0.0497652
623.715	0.0514426
623.85	0.0507716
623.985	0.0507716
624.12	0.0504361
624.255	0.0502125
624.39	0.0524491
624.525	0.0501006
624.661	0.0479758
624.796	0.05189
624.931	0.0503243
625.066	0.0508835
625.201	0.0506598
625.336	0.0521136
625.471	0.0513308
625.606	0.049206
625.741	0.0501006
625.876	0.0513308
626.011	0.0503243
626.146	0.0494297
626.281	0.049877
626.416	0.0494297
626.551	0.0495415
626.686	0.0497652
626.821	0.0522255
626.956	0.0516663
627.091	0.0517781
627.226	0.0501006
627.361	0.0497652
627.496	0.0514426
627.631	0.0517781
627.766	0.0508835
627.901	0.0515545
628.036	0.0508835
628.171	0.0501006
628.307	0.0502125
628.442	0.0504361
628.577	0.0517781
628.712	0.0509953
628.847	0.0509953
628.982	0.0506598
629.117	0.0507716
629.252	0.05189
629.387	0.0504361
629.522	0.050548
629.657	0.0494297
629.792	0.0501006
629.927	0.0506598
630.062	0.0506598
630.197	0.049206
630.332	0.051219
630.467	0.0508835
630.602	0.0511071
630.737	0.0528964
630.872	0.0509953
631.007	0.051219
631.142	0.0502125
631.277	0.0511071
631.412	0.0499888
631.547	0.049877
631.682	0.05189
631.817	0.0514426
631.952	0.0508835
632.087	0.0506598
632.222	0.0503243
632.357	0.0507716
632.492	0.0515545
632.627	0.0506598
632.762	0.0506598
632.897	0.0515545
633.032	0.0515545
633.167	0.0506598
633.302	0.0507716
633.437	0.0507716
633.572	0.0508835
633.707	0.0515545
633.842	0.0499888
633.978	0.0502125
634.113	0.0502125
634.248	0.0517781
634.383	0.0504361
634.518	0.0504361
634.653	0.0502125
634.788	0.0508835
634.923	0.0495415
635.058	0.0506598
635.193	0.0508835
635.328	0.0511071
635.463	0.0513308
635.598	0.051219
635.733	0.0502125
635.868	0.0520018
636.003	0.0503243
636.138	0.0508835
636.273	0.0515545
636.408	0.0511071
636.543	0.0511071
636.678	0.0497652
636.813	0.0516663
636.948	0.0507716
637.083	0.0511071
637.218	0.0514426
637.353	0.05189
637.488	0.049877
637.623	0.0514426
637.758	0.0493178
637.893	0.0508835
638.028	0.0507716
638.163	0.0494297
638.298	0.0516663
638.433	0.0504361
638.568	0.049206
638.703	0.0511071
638.838	0.0504361
638.973	0.049877
639.108	0.0509953
639.243	0.0517781
639.378	0.0499888
639.513	0.0506598
639.648	0.0503243
639.783	0.051219
639.918	0.0506598
640.053	0.0497652
640.188	0.0494297
640.323	0.0506598
640.458	0.0506598
640.593	0.0504361
640.728	0.0490942
640.863	0.0533438
640.998	0.050548
641.133	0.0514426
641.268	0.0508835
641.403	0.0506598
641.538	0.0489823
641.673	0.0502125
641.808	0.0493178
641.943	0.0517781
642.078	0.0507716
642.213	0.0509953
642.348	0.0516663
642.483	0.0521136
642.618	0.0495415
642.753	0.0507716
642.888	0.0504361
643.023	0.0506598
643.158	0.050548
643.293	0.0494297
643.428	0.0501006
643.563	0.0504361
643.698	0.0494297
643.833	0.0499888
643.968	0.0509953
644.103	0.0516663
644.237	0.0507716
644.372	0.0508835
644.507	0.0502125
644.642	0.0501006
644.777	0.0508835
644.912	0.0514426
645.047	0.0513308
645.182	0.0508835
645.317	0.0508835
645.452	0.0524491
645.587	0.050548
645.722	0.0501006
645.857	0.0513308
645.992	0.049877
646.127	0.049206
646.262	0.0520018
646.397	0.0515545
646.532	0.0517781
646.667	0.0511071
646.802	0.0506598
646.937	0.049877
647.072	0.0494297
647.207	0.0524491
647.342	0.0501006
647.477	0.0502125
647.612	0.0506598
647.747	0.0530083
647.882	0.0513308
648.017	0.049206
648.152	0.0502125
648.287	0.0515545
648.422	0.051219
648.557	0.0504361
648.692	0.0509953
648.827	0.0502125
648.962	0.0514426
649.097	0.0509953
649.232	0.050548
649.367	0.051219
649.502	0.0502125
649.637	0.0513308
649.772	0.0513308
649.906	0.0507716
650.041	0.0520018
650.176	0.049877
650.311	0.0509953
650.446	0.0507716
650.581	0.0514426
650.716	0.0509953
650.851	0.050548
650.986	0.0511071
651.121	0.0506598
651.256	0.0503243
651.391	0.0508835
651.526	0.0504361
651.661	0.0523373
651.796	0.050548
651.931	0.0516663
652.066	0.0508835
652.201	0.0520018
652.336	0.0511071
652.471	0.0499888
652.606	0.0502125
652.741	0.05189
652.876	0.0493178
653.011	0.0507716
653.146	0.0501006
653.281	0.0490942
653.415	0.0509953
653.55	0.0495415
653.685	0.0490942
653.82	0.0509953
653.955	0.0506598
654.09	0.0509953
654.225	0.0499888
654.36	0.0504361
654.495	0.0503243
654.63	0.051219
654.765	0.0499888
654.9	0.0522255
655.035	0.0508835
655.17	0.0497652
655.305	0.0504361
655.44	0.0494297
655.575	0.0511071
655.71	0.0499888
655.845	0.051219
655.98	0.0522255
656.115	0.0513308
656.25	0.0514426
656.384	0.0520018
656.519	0.0507716
656.654	0.0494297
656.789	0.0522255
656.924	0.0502125
657.059	0.0499888
657.194	0.050548
657.329	0.0522255
657.464	0.0496533
657.599	0.0493178
657.734	0.049877
657.869	0.0507716
658.004	0.0516663
658.139	0.0502125
658.274	0.0511071
658.409	0.0501006
658.544	0.0493178
658.679	0.0508835
658.813	0.0508835
658.948	0.0509953
659.083	0.0508835
659.218	0.0508835
659.353	0.0514426
659.488	0.0507716
659.623	0.0508835
659.758	0.0520018
659.893	0.0497652
660.028	0.0497652
660.163	0.0499888
660.298	0.0509953
660.433	0.0526728
660.568	0.0495415
660.703	0.0517781
660.838	0.0501006
660.972	0.0511071
661.107	0.0513308
661.242	0.0503243
661.377	0.0514426
661.512	0.0507716
661.647	0.0513308
661.782	0.0504361
661.917	0.0496533
662.052	0.0501006
662.187	0.0502125
662.322	0.0486468
662.457	0.049877
662.592	0.0509953
662.727	0.049877
662.862	0.049877
662.996	0.0509953
663.131	0.0513308
663.266	0.0524491
663.401	0.0515545
663.536	0.0503243
663.671	0.0496533
663.806	0.048535
663.941	0.0495415
664.076	0.0501006
664.211	0.0499888
664.346	0.0515545
664.481	0.0525609
664.616	0.051219
664.75	0.0497652
664.885	0.0516663
665.02	0.051219
665.155	0.0503243
665.29	0.0502125
665.425	0.05189
665.56	0.0513308
665.695	0.0520018
665.83	0.0497652
665.965	0.0513308
666.1	0.0509953
666.235	0.0506598
666.37	0.0508835
666.504	0.0525609
666.639	0.0499888
666.774	0.049206
666.909	0.0499888
667.044	0.0522255
667.179	0.050548
667.314	0.0490942
667.449	0.050548
667.584	0.0506598
667.719	0.05189
667.854	0.0504361
667.989	0.0499888
668.123	0.0503243
668.258	0.0508835
668.393	0.0499888
668.528	0.0509953
668.663	0.0514426
668.798	0.0508835
668.933	0.0515545
669.068	0.0507716
669.203	0.050548
669.338	0.0503243
669.473	0.049877
669.607	0.0473049
669.742	0.0501006
669.877	0.0504361
670.012	0.0497652
670.147	0.050548
670.282	0.0507716
670.417	0.0502125
670.552	0.051219
670.687	0.051219
670.822	0.0504361
670.957	0.0495415
671.091	0.051219
671.226	0.0514426
671.361	0.0509953
671.496	0.0516663
671.631	0.0507716
671.766	0.0513308
671.901	0.0522255
672.036	0.0504361
672.171	0.0516663
672.306	0.0509953
672.44	0.050548
672.575	0.0496533
672.71	0.0517781
672.845	0.0514426
672.98	0.0506598
673.115	0.0515545
673.25	0.0487587
673.385	0.0503243
673.52	0.0503243
673.655	0.0497652
673.789	0.0502125
673.924	0.0497652
674.059	0.051219
674.194	0.050548
674.329	0.0517781
674.464	0.050548
674.599	0.0508835
674.734	0.05189
674.869	0.0489823
675.003	0.0513308
675.138	0.0496533
675.273	0.0496533
675.408	0.0514426
675.543	0.0509953
675.678	0.0508835
675.813	0.0516663
675.948	0.05189
676.083	0.0506598
676.217	0.0501006
676.352	0.0507716
676.487	0.050548
676.622	0.0499888
676.757	0.049877
676.892	0.0503243
677.027	0.0490942
677.162	0.0508835
677.297	0.0495415
677.431	0.049206
677.566	0.0521136
677.701	0.0503243
677.836	0.0507716
677.971	0.0488705
678.106	0.0494297
678.241	0.0520018
678.376	0.0507716
678.511	0.0521136
678.645	0.0503243
678.78	0.0523373
678.915	0.0508835
679.05	0.0509953
679.185	0.0515545
679.32	0.0496533
679.455	0.0523373
679.59	0.0509953
679.724	0.0515545
679.859	0.0530083
679.994	0.0499888
680.129	0.0502125
680.264	0.0517781
680.399	0.0520018
680.534	0.0515545
680.669	0.0494297
680.803	0.0511071
680.938	0.0516663
681.073	0.0522255
681.208	0.0503243
681.343	0.0513308
681.478	0.049877
681.613	0.0521136
681.748	0.050548
681.882	0.050548
682.017	0.0508835
682.152	0.0517781
682.287	0.0513308
682.422	0.0509953
682.557	0.0493178
682.692	0.051219
682.827	0.0516663
682.961	0.0515545
683.096	0.05189
683.231	0.0504361
683.366	0.0504361
683.501	0.0501006
683.636	0.0504361
683.771	0.0507716
683.906	0.051219
684.04	0.0509953
684.175	0.0489823
684.31	0.0514426
684.445	0.0502125
684.58	0.0530083
684.715	0.050548
684.85	0.0495415
684.984	0.0503243
685.119	0.0508835
685.254	0.0517781
685.389	0.0497652
685.524	0.049206
685.659	0.0514426
685.794	0.0506598
685.928	0.0501006
686.063	0.0504361
686.198	0.049877
686.333	0.0509953
686.468	0.0515545
686.603	0.0503243
686.738	0.0507716
686.872	0.0507716
687.007	0.0507716
687.142	0.049877
687.277	0.0502125
687.412	0.049877
687.547	0.0506598
687.682	0.0504361
687.816	0.0517781
687.951	0.049877
688.086	0.0502125
688.221	0.0508835
688.356	0.0509953
688.491	0.0504361
688.626	0.0502125
688.76	0.0502125
688.895	0.051219
689.03	0.0501006
689.165	0.0513308
689.3	0.050548
689.435	0.0507716
689.57	0.051219
689.704	0.050548
689.839	0.05189
689.974	0.0521136
690.109	0.0499888
690.244	0.0493178
690.379	0.0499888
690.513	0.0504361
690.648	0.049877
690.783	0.0496533
690.918	0.0509953
691.053	0.0503243
691.188	0.0506598
691.323	0.050548
691.457	0.0501006
691.592	0.0526728
691.727	0.0517781
691.862	0.0506598
691.997	0.0507716
692.132	0.0497652
692.266	0.0508835
692.401	0.0497652
692.536	0.0497652
692.671	0.0506598
692.806	0.049877
692.941	0.0504361
693.075	0.0507716
693.21	0.0506598
693.345	0.0502125
693.48	0.0499888
693.615	0.0503243
693.75	0.0506598
693.885	0.0501006
694.019	0.0499888
694.154	0.0504361
694.289	0.0515545
694.424	0.0508835
694.559	0.0504361
694.694	0.0494297
694.828	0.0509953
694.963	0.0501006
695.098	0.05189
695.233	0.0504361
695.368	0.051219
695.503	0.0504361
695.637	0.0502125
695.772	0.0496533
695.907	0.0511071
696.042	0.0508835
696.177	0.0517781
696.312	0.0520018
696.446	0.0503243
696.581	0.0499888
696.716	0.0508835
696.851	0.0503243
696.986	0.0502125
697.12	0.0516663
697.255	0.0490942
697.39	0.050548
697.525	0.0502125
697.66	0.0495415
697.795	0.0504361
697.929	0.0503243
698.064	0.0513308
698.199	0.0511071
698.334	0.0502125
698.469	0.051219
698.604	0.0501006
698.738	0.0507716
698.873	0.0504361
699.008	0.0507716
699.143	0.0513308
699.278	0.0511071
699.412	0.050548
699.547	0.0507716
699.682	0.0506598
699.817	0.0506598
699.952	0.0508835
700.087	0.0507716
700.221	0.0514426
700.356	0.049206
700.491	0.0494297
700.626	0.0502125
700.761	0.0501006
700.895	0.0514426
701.03	0.0517781
701.165	0.0506598
701.3	0.049877
701.435	0.0508835
701.57	0.050548
701.704	0.0508835
701.839	0.0504361
701.974	0.050548
702.109	0.0507716
702.244	0.0496533
702.378	0.0499888
702.513	0.0504361
702.648	0.0509953
702.783	0.051219
702.918	0.0501006
703.052	0.0520018
703.187	0.0522255
703.322	0.0516663
703.457	0.0501006
703.592	0.0513308
703.727	0.0496533
703.861	0.0506598
703.996	0.0509953
704.131	0.0513308
704.266	0.0508835
704.401	0.0524491
704.535	0.0511071
704.67	0.0502125
704.805	0.0507716
704.94	0.0501006
705.075	0.0502125
705.209	0.0503243
705.344	0.051219
705.479	0.0509953
705.614	0.0511071
705.749	0.0489823
705.883	0.0506598
706.018	0.0511071
706.153	0.0525609
706.288	0.0517781
706.423	0.0496533
706.557	0.0508835
706.692	0.0506598
706.827	0.051219
706.962	0.0496533
707.097	0.0499888
707.231	0.0525609
707.366	0.0509953
707.501	0.050548
707.636	0.051219
707.771	0.0514426
707.905	0.0504361
708.04	0.0509953
708.175	0.051219
708.31	0.0514426
708.445	0.049877
708.579	0.0527846
708.714	0.049877
708.849	0.049877
708.984	0.0514426
709.118	0.0506598
709.253	0.0517781
709.388	0.0521136
709.523	0.0515545
709.658	0.0497652
709.792	0.0515545
709.927	0.0515545
710.062	0.0507716
710.197	0.0501006
710.332	0.050548
710.466	0.05189
710.601	0.0493178
710.736	0.0524491
710.871	0.0511071
711.006	0.0520018
711.14	0.0520018
711.275	0.050548
711.41	0.0523373
711.545	0.0514426
711.679	0.0516663
711.814	0.0506598
711.949	0.0511071
712.084	0.0499888
712.219	0.0506598
712.353	0.0513308
712.488	0.0509953
712.623	0.0489823
712.758	0.0517781
712.892	0.0514426
713.027	0.0501006
713.162	0.0502125
713.297	0.0509953
713.432	0.0497652
713.566	0.0514426
713.701	0.0499888
713.836	0.0502125
713.971	0.0506598
714.105	0.050548
714.24	0.0508835
714.375	0.0520018
714.51	0.0511071
714.645	0.0499888
714.779	0.0511071
714.914	0.050548
715.049	0.0528964
715.184	0.0503243
715.318	0.0490942
715.453	0.0524491
715.588	0.0502125
715.723	0.0511071
715.858	0.0514426
715.992	0.0504361
716.127	0.0497652
716.262	0.0493178
716.397	0.0508835
716.531	0.0506598
716.666	0.0495415
716.801	0.0504361
716.936	0.05189
717.07	0.0513308
717.205	0.0504361
717.34	0.051219
717.475	0.0517781
717.61	0.050548
717.744	0.0503243
717.879	0.0506598
718.014	0.0511071
718.149	0.0503243
718.283	0.0523373
718.418	0.049206
718.553	0.0508835
718.688	0.0517781
718.822	0.0515545
718.957	0.0503243
719.092	0.0495415
719.227	0.0493178
719.361	0.0497652
719.496	0.0493178
719.631	0.0499888
719.766	0.0506598
719.9	0.0515545
720.035	0.0487587
720.17	0.050548
720.305	0.0503243
720.44	0.0504361
720.574	0.0506598
720.709	0.0516663
720.844	0.0507716
720.979	0.0511071
721.113	0.0523373
721.248	0.0509953
721.383	0.0502125
721.518	0.0509953
721.652	0.0506598
721.787	0.0516663
721.922	0.049877
722.057	0.049877
722.191	0.0507716
722.326	0.0507716
722.461	0.0511071
722.596	0.0499888
722.73	0.0513308
722.865	0.0509953
723	0.050548
723.135	0.051219
723.269	0.05189
723.404	0.049877
723.539	0.0521136
723.674	0.0503243
723.808	0.0499888
723.943	0.05189
724.078	0.0502125
724.213	0.049877
724.347	0.0506598
724.482	0.0501006
724.617	0.0513308
724.752	0.0499888
724.886	0.0511071
725.021	0.0504361
725.156	0.0499888
725.291	0.0522255
725.425	0.0514426
725.56	0.0494297
725.695	0.0515545
725.829	0.0514426
725.964	0.049877
726.099	0.0506598
726.234	0.0497652
726.368	0.049877
726.503	0.048535
726.638	0.0503243
726.773	0.0509953
726.907	0.0515545
727.042	0.0511071
727.177	0.0497652
727.312	0.05189
727.446	0.049877
727.581	0.050548
727.716	0.0501006
727.851	0.0490942
727.985	0.0511071
728.12	0.0513308
728.255	0.0503243
728.389	0.0502125
728.524	0.0508835
728.659	0.051219
728.794	0.0504361
728.928	0.0520018
729.063	0.0513308
729.198	0.0506598
729.333	0.0508835
729.467	0.0536793
729.602	0.0516663
729.737	0.0506598
729.872	0.0511071
730.006	0.0503243
730.141	0.0502125
730.276	0.0511071
730.41	0.0490942
730.545	0.0509953
730.68	0.050548
730.815	0.049877
730.949	0.0499888
731.084	0.0493178
731.219	0.0513308
731.354	0.0497652
731.488	0.0497652
731.623	0.0504361
731.758	0.051219
731.892	0.0514426
732.027	0.0497652
732.162	0.049877
732.297	0.0504361
732.431	0.0499888
732.566	0.051219
732.701	0.049877
732.835	0.0493178
732.97	0.0495415
733.105	0.0516663
733.24	0.0499888
733.374	0.0502125
733.509	0.0502125
733.644	0.0495415
733.779	0.0517781
733.913	0.050548
734.048	0.0496533
734.183	0.0506598
734.317	0.0499888
734.452	0.0517781
734.587	0.0516663
734.722	0.049877
734.856	0.0513308
734.991	0.0503243
735.126	0.051219
735.26	0.0504361
735.395	0.05189
735.53	0.0502125
735.665	0.051219
735.799	0.049877
735.934	0.0515545
736.069	0.0516663
736.203	0.0506598
736.338	0.0503243
736.473	0.0507716
736.607	0.0515545
736.742	0.0520018
736.877	0.0504361
737.012	0.0504361
737.146	0.051219
737.281	0.0508835
737.416	0.0515545
737.55	0.0515545
737.685	0.0516663
737.82	0.0514426
737.955	0.0507716
738.089	0.0503243
738.224	0.0499888
738.359	0.0513308
738.493	0.0513308
738.628	0.050548
738.763	0.05189
738.897	0.0517781
739.032	0.0499888
739.167	0.0511071
739.302	0.05189
739.436	0.0506598
739.571	0.0515545
739.706	0.0504361
739.84	0.050548
739.975	0.0521136
740.11	0.047864
740.244	0.049877
740.379	0.0496533
740.514	0.0508835
740.649	0.0523373
740.783	0.0506598
740.918	0.05189
741.053	0.0525609
741.187	0.0508835
741.322	0.051219
741.457	0.0507716
741.591	0.0495415
741.726	0.0521136
741.861	0.0495415
741.996	0.0514426
742.13	0.0514426
742.265	0.0502125
742.4	0.0517781
742.534	0.0511071
742.669	0.05189
742.804	0.0507716
742.938	0.0499888
743.073	0.048535
743.208	0.0520018
743.342	0.05189
743.477	0.0495415
743.612	0.0517781
743.747	0.0502125
743.881	0.0509953
744.016	0.0516663
744.151	0.0508835
744.285	0.0499888
744.42	0.049877
744.555	0.0517781
744.689	0.05189
744.824	0.0487587
744.959	0.0507716
745.093	0.0499888
745.228	0.0509953
745.363	0.0499888
745.497	0.0503243
745.632	0.049877
745.767	0.0511071
745.901	0.0504361
746.036	0.0502125
746.171	0.0509953
746.305	0.0501006
746.44	0.050548
746.575	0.0508835
746.71	0.0503243
746.844	0.0509953
746.979	0.049877
747.114	0.0522255
747.248	0.049206
747.383	0.0530083
747.518	0.0506598
747.652	0.0507716
747.787	0.0514426
747.922	0.0508835
748.056	0.0514426
748.191	0.0502125
748.326	0.0506598
748.46	0.051219
748.595	0.0501006
748.73	0.0515545
748.864	0.051219
748.999	0.0520018
749.134	0.0501006
749.268	0.0507716
749.403	0.0507716
749.538	0.0502125
749.672	0.0525609
749.807	0.0502125
749.942	0.0506598
750.076	0.0508835
750.211	0.0507716
750.346	0.0503243
750.48	0.0515545
750.615	0.049206
750.75	0.050548
750.884	0.0511071
751.019	0.050548
751.154	0.049877
751.288	0.0499888
751.423	0.0524491
751.558	0.0504361
751.692	0.0497652
751.827	0.0493178
751.962	0.0495415
752.096	0.0511071
752.231	0.0497652
752.366	0.0514426
752.5	0.0501006
752.635	0.0499888
752.77	0.0504361
752.904	0.0503243
753.039	0.0514426
753.174	0.0493178
753.308	0.0499888
753.443	0.0503243
753.578	0.0494297
753.712	0.050548
753.847	0.0499888
753.982	0.0509953
754.116	0.0508835
754.251	0.0509953
754.386	0.0502125
754.52	0.051219
754.655	0.0511071
754.79	0.0520018
754.924	0.0499888
755.059	0.0513308
755.194	0.0509953
755.328	0.0499888
755.463	0.0517781
755.597	0.0497652
755.732	0.0511071
755.867	0.0496533
756.001	0.0514426
756.136	0.0503243
756.271	0.0504361
756.405	0.0503243
756.54	0.051219
756.675	0.0504361
756.809	0.0502125
756.944	0.0509953
757.079	0.0506598
757.213	0.0506598
757.348	0.0511071
757.483	0.0516663
757.617	0.051219
757.752	0.0504361
757.887	0.0501006
758.021	0.0508835
758.156	0.0509953
758.29	0.0504361
758.425	0.0504361
758.56	0.0497652
758.694	0.0508835
758.829	0.0523373
758.964	0.051219
759.098	0.0517781
759.233	0.0499888
759.368	0.0507716
759.502	0.0517781
759.637	0.0503243
759.772	0.0516663
759.906	0.0490942
760.041	0.0514426
760.175	0.0524491
760.31	0.0503243
760.445	0.0490942
760.579	0.050548
760.714	0.0511071
760.849	0.050548
760.983	0.0504361
761.118	0.0503243
761.253	0.051219
761.387	0.0513308
761.522	0.0506598
761.656	0.051219
761.791	0.049877
761.926	0.049877
762.06	0.0509953
762.195	0.0502125
762.33	0.0503243
762.464	0.049877
762.599	0.0503243
762.733	0.0504361
762.868	0.051219
763.003	0.0534556
763.137	0.0501006
763.272	0.051219
763.407	0.048535
763.541	0.0507716
763.676	0.0517781
763.811	0.049877
763.945	0.0503243
764.08	0.0507716
764.214	0.0517781
764.349	0.0515545
764.484	0.0507716
764.618	0.0513308
764.753	0.0495415
764.888	0.0508835
765.022	0.0514426
765.157	0.0503243
765.291	0.0497652
765.426	0.0507716
765.561	0.050548
765.695	0.0515545
765.83	0.0526728
765.965	0.0506598
766.099	0.0499888
766.234	0.0516663
766.368	0.0496533
766.503	0.0521136
766.638	0.0509953
766.772	0.0509953
766.907	0.0488705
767.041	0.0499888
767.176	0.0488705
767.311	0.0503243
767.445	0.0493178
767.58	0.051219
767.715	0.0511071
767.849	0.050548
767.984	0.050548
768.118	0.0503243
768.253	0.0508835
768.388	0.0504361
768.522	0.0504361
768.657	0.0503243
768.791	0.0495415
768.926	0.0506598
769.061	0.0501006
769.195	0.0521136
769.33	0.0503243
769.465	0.0502125
769.599	0.0517781
769.734	0.051219
769.868	0.0501006
770.003	0.0506598
770.138	0.0499888
770.272	0.0514426
770.407	0.0508835
770.541	0.0515545
770.676	0.0511071
770.811	0.051219
770.945	0.0506598
771.08	0.0506598
771.214	0.0507716
771.349	0.0508835
771.484	0.0501006
771.618	0.0515545
771.753	0.051219
771.887	0.0504361
772.022	0.049877
772.157	0.049877
772.291	0.051219
772.426	0.049877
772.56	0.0502125
772.695	0.0508835
772.83	0.0502125
772.964	0.049877
773.099	0.0515545
773.233	0.0506598
773.368	0.0503243
773.503	0.050548
773.637	0.049877
773.772	0.0509953
773.906	0.0501006
774.041	0.0514426
774.176	0.0508835
774.31	0.0520018
774.445	0.0506598
774.579	0.0526728
774.714	0.0513308
774.849	0.0507716
774.983	0.0509953
775.118	0.0515545
775.252	0.0501006
775.387	0.0517781
775.522	0.0508835
775.656	0.0513308
775.791	0.0501006
775.925	0.05189
776.06	0.0514426
776.195	0.0517781
776.329	0.0507716
776.464	0.0502125
776.598	0.0522255
776.733	0.05189
776.868	0.0501006
777.002	0.0494297
777.137	0.0511071
777.271	0.0499888
777.406	0.0514426
777.54	0.05189
777.675	0.049877
777.81	0.0517781
777.944	0.0511071
778.079	0.0503243
778.213	0.0493178
778.348	0.0521136
778.483	0.0504361
778.617	0.0507716
778.752	0.050548
778.886	0.0508835
779.021	0.0507716
779.155	0.0508835
779.29	0.0506598
779.425	0.0499888
779.559	0.0509953
779.694	0.051219
779.828	0.0502125
779.963	0.0521136
780.098	0.0504361
780.232	0.0517781
780.367	0.0523373
780.501	0.0506598
780.636	0.0511071
780.77	0.0493178
780.905	0.0506598
781.04	0.0494297
781.174	0.0511071
781.309	0.0509953
781.443	0.0525609
781.578	0.0513308
781.712	0.0517781
781.847	0.0494297
781.982	0.0513308
782.116	0.051219
782.251	0.0507716
782.385	0.0501006
782.52	0.0517781
782.654	0.0509953
782.789	0.0507716
782.924	0.051219
783.058	0.0514426
783.193	0.0513308
783.327	0.0495415
783.462	0.051219
783.596	0.051219
783.731	0.0517781
783.866	0.0502125
784	0.0523373
784.135	0.048535
784.269	0.0516663
784.404	0.0511071
784.538	0.0507716
784.673	0.0514426
784.808	0.0494297
784.942	0.0513308
785.077	0.0496533
785.211	0.051219
785.346	0.0517781
785.48	0.0507716
785.615	0.049877
785.75	0.0522255
785.884	0.0520018
786.019	0.0514426
786.153	0.0503243
786.288	0.0515545
786.422	0.0511071
786.557	0.0506598
786.691	0.049877
786.826	0.0503243
786.961	0.0522255
787.095	0.0496533
787.23	0.0501006
787.364	0.048535
787.499	0.0499888
787.633	0.0507716
787.768	0.0494297
787.902	0.0513308
788.037	0.0504361
788.172	0.051219
788.306	0.0506598
788.441	0.0507716
788.575	0.0511071
788.71	0.0507716
788.844	0.051219
788.979	0.0514426
789.113	0.0503243
789.248	0.0507716
789.383	0.0508835
789.517	0.0508835
789.652	0.0509953
789.786	0.0494297
789.921	0.05189
790.055	0.0494297
790.19	0.0495415
790.324	0.0499888
790.459	0.0517781
790.594	0.0508835
790.728	0.049877
790.863	0.0493178
790.997	0.0526728
791.132	0.049206
791.266	0.0501006
791.401	0.05189
791.535	0.0513308
791.67	0.051219
791.804	0.0513308
791.939	0.0502125
792.074	0.051219
792.208	0.0507716
792.343	0.0513308
792.477	0.0506598
792.612	0.0506598
792.746	0.0489823
792.881	0.0522255
793.015	0.0504361
793.15	0.050548
793.284	0.0509953
793.419	0.051219
793.553	0.0527846
793.688	0.0511071
793.823	0.0499888
793.957	0.0514426
794.092	0.0504361
794.226	0.051219
794.361	0.0517781
794.495	0.050548
794.63	0.0496533
794.764	0.0509953
794.899	0.0499888
795.033	0.0509953
795.168	0.0516663
795.302	0.0503243
795.437	0.0499888
795.572	0.0487587
795.706	0.0503243
795.841	0.0526728
795.975	0.0499888
796.11	0.0509953
796.244	0.0516663
796.379	0.0520018
796.513	0.0520018
796.648	0.0532319
796.782	0.050548
796.917	0.0514426
797.051	0.0508835
797.186	0.05189
797.32	0.0514426
797.455	0.051219
797.589	0.0499888
797.724	0.0503243
797.859	0.051219
797.993	0.051219
798.128	0.0525609
798.262	0.0511071
798.397	0.0501006
798.531	0.0494297
798.666	0.0495415
798.8	0.051219
798.935	0.051219
799.069	0.0520018
799.204	0.0511071
799.338	0.0513308
799.473	0.0508835
799.607	0.0509953
799.742	0.0495415
799.876	0.0515545
800.011	0.0514426
800.145	0.0524491
800.28	0.0499888
800.414	0.050548
800.549	0.0516663
800.683	0.051219
800.818	0.0515545
800.953	0.0509953
801.087	0.0502125
801.222	0.0501006
801.356	0.0522255
801.491	0.0502125
801.625	0.0504361
801.76	0.0520018
801.894	0.0511071
802.029	0.0499888
802.163	0.0521136
802.298	0.0516663
802.432	0.0499888
802.567	0.0509953
802.701	0.0517781
802.836	0.0503243
802.97	0.0528964
803.105	0.0513308
803.239	0.0502125
803.374	0.051219
803.508	0.0515545
803.643	0.051219
803.777	0.0495415
803.912	0.05189
804.046	0.0513308
804.181	0.0504361
804.315	0.0509953
804.45	0.0527846
804.584	0.0514426
804.719	0.0506598
804.853	0.0506598
804.988	0.0514426
805.122	0.050548
805.257	0.0517781
805.391	0.0511071
805.526	0.0514426
805.66	0.0522255
805.795	0.0526728
805.929	0.0503243
806.064	0.051219
806.198	0.0517781
806.333	0.051219
806.467	0.0514426
806.602	0.0514426
806.736	0.0525609
806.871	0.0522255
807.005	0.0524491
807.14	0.0506598
807.274	0.0530083
807.409	0.0525609
807.543	0.0509953
807.678	0.0509953
807.812	0.0534556
807.947	0.0524491
808.081	0.0522255
808.216	0.0524491
808.35	0.0496533
808.485	0.0524491
808.619	0.0509953
808.754	0.0522255
808.888	0.0542384
809.023	0.0532319
809.157	0.0528964
809.292	0.0533438
809.426	0.0532319
809.561	0.0539029
809.695	0.0540148
809.83	0.0543503
809.964	0.0536793
810.099	0.0537911
810.233	0.0553567
810.368	0.0546858
810.502	0.0553567
810.637	0.0556922
810.771	0.0551331
810.906	0.0571461
811.04	0.0571461
811.175	0.0597182
811.309	0.0580407
811.444	0.0624021
811.578	0.0636323
811.713	0.0675464
811.847	0.0754865
811.982	0.0810781
812.116	0.100201
812.251	0.124804
812.385	0.301275
812.519	0.880228
812.654	1
812.788	0.665064
812.923	0.480765
813.057	0.604115
813.192	0.448893
813.326	0.661485
813.461	0.92675
813.595	0.513867
813.73	0.13856
813.864	0.0723552
813.999	0.0657571
814.133	0.0658689
814.268	0.0683292
814.402	0.0802952
814.537	0.192686
814.671	0.459629
814.806	0.46276
814.94	0.253299
815.075	0.073809
815.209	0.0566987
815.344	0.0564751
815.478	0.0545739
815.612	0.0539029
815.747	0.0546858
815.881	0.0531201
816.016	0.0528964
816.15	0.0532319
816.285	0.0541266
816.419	0.0536793
816.554	0.0540148
816.688	0.0521136
816.823	0.05189
816.957	0.0506598
817.092	0.0522255
817.226	0.0524491
817.361	0.0514426
817.495	0.0528964
817.63	0.0517781
817.764	0.0514426
817.898	0.0508835
818.033	0.0515545
818.167	0.0502125
818.302	0.0524491
818.436	0.0507716
818.571	0.0523373
818.705	0.0513308
818.84	0.0508835
818.974	0.0504361
819.109	0.0503243
819.243	0.0501006
819.378	0.050548
819.512	0.0514426
819.646	0.0504361
819.781	0.0502125
819.915	0.0508835
820.05	0.0503243
820.184	0.0515545
820.319	0.0509953
820.453	0.0516663
820.588	0.05189
820.722	0.0511071
820.857	0.0496533
820.991	0.0496533
821.126	0.0511071
821.26	0.0506598
821.394	0.0509953
821.529	0.0513308
821.663	0.0508835
821.798	0.0506598
821.932	0.0495415
822.067	0.0506598
822.201	0.0516663
822.336	0.0508835
822.47	0.0499888
822.605	0.0496533
822.739	0.0516663
822.873	0.0514426
823.008	0.0507716
823.142	0.0507716
823.277	0.0509953
823.411	0.0503243
823.546	0.0508835
823.68	0.050548
823.815	0.0517781
823.949	0.0520018
824.083	0.0506598
824.218	0.0504361
824.352	0.050548
824.487	0.0513308
824.621	0.0524491
824.756	0.051219
824.89	0.049877
825.025	0.0506598
825.159	0.0506598
825.293	0.0503243
825.428	0.0515545
825.562	0.0506598
825.697	0.0502125
825.831	0.0522255
825.966	0.0503243
826.1	0.0511071
826.235	0.0504361
826.369	0.0502125
826.503	0.0508835
826.638	0.0504361
826.772	0.0513308
826.907	0.0507716
827.041	0.0507716
827.176	0.0517781
827.31	0.0502125
827.445	0.0507716
827.579	0.0513308
827.713	0.0509953
827.848	0.0513308
827.982	0.0517781
828.117	0.0520018
828.251	0.049877
828.386	0.0499888
828.52	0.0503243
828.654	0.05189
828.789	0.0501006
828.923	0.0515545
829.058	0.0513308
829.192	0.051219
829.327	0.049877
829.461	0.0508835
829.596	0.0501006
829.73	0.050548
829.864	0.05189
829.999	0.0509953
830.133	0.051219
830.268	0.0506598
830.402	0.0502125
830.537	0.0497652
830.671	0.0517781
830.805	0.0520018
830.94	0.0506598
831.074	0.0496533
831.209	0.0496533
831.343	0.0501006
831.478	0.0509953
831.612	0.0508835
831.746	0.0503243
831.881	0.051219
832.015	0.0489823
832.15	0.0507716
832.284	0.050548
832.418	0.0517781
832.553	0.0513308
832.687	0.0516663
832.822	0.0506598
832.956	0.051219
833.091	0.0506598
833.225	0.0502125
833.359	0.0504361
833.494	0.050548
833.628	0.0516663
833.763	0.0525609
833.897	0.0499888
834.032	0.050548
834.166	0.0501006
834.3	0.0517781
834.435	0.0517781
834.569	0.051219
834.704	0.0521136
834.838	0.0501006
834.972	0.050548
835.107	0.051219
835.241	0.0502125
835.376	0.0504361
835.51	0.049877
835.645	0.05189
835.779	0.0508835
835.913	0.0525609
836.048	0.0511071
836.182	0.0509953
836.317	0.048535
836.451	0.0521136
836.585	0.0487587
836.72	0.0513308
836.854	0.0495415
836.989	0.0496533
837.123	0.0503243
837.257	0.0527846
837.392	0.049877
837.526	0.0506598
837.661	0.0523373
837.795	0.0508835
837.929	0.0524491
838.064	0.0503243
838.198	0.0520018
838.333	0.0509953
838.467	0.050548
838.602	0.0503243
838.736	0.0501006
838.87	0.0507716
839.005	0.0514426
839.139	0.0509953
839.274	0.049877
839.408	0.0507716
839.542	0.0503243
839.677	0.050548
839.811	0.051219
839.946	0.0504361
840.08	0.0508835
840.214	0.0526728
840.349	0.0495415
840.483	0.0496533
840.618	0.050548
840.752	0.0515545
840.886	0.0515545
841.021	0.05189
841.155	0.0488705
841.29	0.0511071
841.424	0.0503243
841.558	0.0484232
841.693	0.0507716
841.827	0.050548
841.961	0.0501006
842.096	0.050548
842.23	0.0501006
842.365	0.0513308
842.499	0.0501006
842.633	0.0516663
842.768	0.0508835
842.902	0.0508835
843.037	0.0503243
843.171	0.0502125
843.305	0.0489823
843.44	0.0501006
843.574	0.0511071
843.709	0.0508835
843.843	0.0523373
843.977	0.0507716
844.112	0.0516663
844.246	0.051219
844.381	0.0508835
844.515	0.051219
844.649	0.0506598
844.784	0.0502125
844.918	0.0499888
845.052	0.05189
845.187	0.0504361
845.321	0.0506598
845.456	0.0488705
845.59	0.0497652
845.724	0.049877
845.859	0.0523373
845.993	0.0509953
846.128	0.0503243
846.262	0.051219
846.396	0.0528964
846.531	0.0501006
846.665	0.0503243
846.799	0.0508835
846.934	0.0509953
847.068	0.051219
847.203	0.050548
847.337	0.0506598
847.471	0.0495415
847.606	0.0493178
847.74	0.0509953
847.874	0.0517781
848.009	0.0501006
848.143	0.0493178
848.278	0.0502125
848.412	0.049877
848.546	0.0516663
848.681	0.0503243
848.815	0.0508835
848.949	0.0511071
849.084	0.0503243
849.218	0.0497652
849.353	0.0517781
849.487	0.0507716
849.621	0.0511071
849.756	0.0499888
849.89	0.0508835
850.024	0.0501006
850.159	0.0515545
850.293	0.0495415
850.428	0.0514426
850.562	0.0504361
850.696	0.0501006
850.831	0.0503243
850.965	0.049877
851.099	0.0506598
851.234	0.0517781
851.368	0.0507716
851.502	0.0524491
851.637	0.05189
851.771	0.0483113
851.906	0.0504361
852.04	0.049206
852.174	0.0515545
852.309	0.0506598
852.443	0.0511071
852.577	0.0517781
852.712	0.0514426
852.846	0.0513308
852.98	0.0503243
853.115	0.051219
853.249	0.0499888
853.384	0.0521136
853.518	0.0511071
853.652	0.0524491
853.787	0.050548
853.921	0.0499888
854.055	0.0501006
854.19	0.0516663
854.324	0.0509953
854.458	0.0513308
854.593	0.0520018
854.727	0.049877
854.861	0.0508835
854.996	0.0507716
855.13	0.0503243
855.265	0.0514426
855.399	0.0506598
855.533	0.0502125
855.668	0.0508835
855.802	0.0506598
855.936	0.0506598
856.071	0.0513308
856.205	0.0502125
856.339	0.0507716
856.474	0.0504361
856.608	0.049877
856.742	0.0524491
856.877	0.0508835
857.011	0.0506598
857.145	0.0508835
857.28	0.0508835
857.414	0.05189
857.549	0.049877
857.683	0.0516663
857.817	0.0520018
857.952	0.0516663
858.086	0.0481995
858.22	0.051219
858.355	0.0504361
858.489	0.0507716
858.623	0.05189
858.758	0.0496533
858.892	0.0509953
859.026	0.0516663
859.161	0.0504361
859.295	0.0522255
859.429	0.0490942
859.564	0.049877
859.698	0.0502125
859.832	0.0514426
859.967	0.0507716
860.101	0.0509953
860.235	0.0501006
860.37	0.0516663
860.504	0.0516663
860.638	0.0497652
860.773	0.049877
860.907	0.0502125
861.041	0.0502125
861.176	0.049877
861.31	0.0511071
861.444	0.051219
861.579	0.0507716
861.713	0.0513308
861.847	0.0501006
861.982	0.051219
862.116	0.0502125
862.25	0.0513308
862.385	0.0511071
862.519	0.0502125
862.653	0.0514426
862.788	0.0515545
862.922	0.049877
863.056	0.0521136
863.191	0.0495415
863.325	0.0504361
863.459	0.0509953
863.594	0.0499888
863.728	0.0511071
863.862	0.049877
863.997	0.049206
864.131	0.0520018
864.265	0.0503243
864.4	0.0513308
864.534	0.050548
864.668	0.0514426
864.803	0.0501006
864.937	0.0514426
865.071	0.0506598
865.206	0.0496533
865.34	0.0527846
865.474	0.0513308
865.609	0.0502125
865.743	0.0504361
865.877	0.0508835
866.012	0.0504361
866.146	0.0496533
866.28	0.0497652
866.415	0.051219
866.549	0.0502125
866.683	0.0511071
866.818	0.0514426
866.952	0.0506598
867.086	0.0509953
867.221	0.0515545
867.355	0.0507716
867.489	0.0488705
867.623	0.051219
867.758	0.0509953
867.892	0.0495415
868.026	0.0496533
868.161	0.0504361
868.295	0.0508835
868.429	0.0496533
868.564	0.0502125
868.698	0.0515545
868.832	0.0495415
868.967	0.0507716
869.101	0.0507716
869.235	0.0502125
869.37	0.0514426
869.504	0.050548
869.638	0.0502125
869.773	0.0514426
869.907	0.0511071
870.041	0.0516663
870.175	0.0515545
870.31	0.0506598
870.444	0.051219
870.578	0.0503243
870.713	0.0504361
870.847	0.051219
870.981	0.0513308
871.116	0.0511071
871.25	0.0511071
871.384	0.0520018
871.519	0.0501006
871.653	0.0503243
871.787	0.0502125
871.921	0.0488705
872.056	0.0490942
872.19	0.0511071
872.324	0.0508835
872.459	0.0517781
872.593	0.0511071
872.727	0.050548
872.862	0.0514426
872.996	0.0507716
873.13	0.049877
873.264	0.0517781
873.399	0.0506598
873.533	0.0514426
873.667	0.0517781
873.802	0.0514426
873.936	0.0507716
874.07	0.0507716
874.205	0.0499888
874.339	0.0490942
874.473	0.050548
874.607	0.0490942
874.742	0.0509953
874.876	0.0488705
875.01	0.050548
875.145	0.0502125
875.279	0.0511071
875.413	0.0507716
875.548	0.0506598
875.682	0.0506598
875.816	0.0494297
875.95	0.0516663
876.085	0.0499888
876.219	0.050548
876.353	0.0521136
876.488	0.0507716
876.622	0.0496533
876.756	0.0502125
876.89	0.049877
877.025	0.0509953
877.159	0.0507716
877.293	0.0514426
877.428	0.0499888
877.562	0.0515545
877.696	0.0507716
877.83	0.0513308
877.965	0.0509953
878.099	0.0497652
878.233	0.0509953
878.368	0.0515545
878.502	0.0493178
878.636	0.0507716
878.77	0.0506598
878.905	0.051219
879.039	0.0513308
879.173	0.0508835
879.308	0.0514426
879.442	0.0499888
879.576	0.051219
879.71	0.0497652
879.845	0.0493178
879.979	0.0514426
880.113	0.0507716
880.248	0.0508835
880.382	0.0503243
880.516	0.0508835
880.65	0.0507716
880.785	0.0504361
880.919	0.0503243
881.053	0.051219
881.188	0.0513308
881.322	0.0483113
881.456	0.0507716
881.59	0.0513308
881.725	0.0514426
881.859	0.0520018
881.993	0.0516663
882.127	0.051219
882.262	0.05189
882.396	0.051219
882.53	0.0509953
882.665	0.0504361
882.799	0.049877
882.933	0.051219
883.067	0.049877
883.202	0.049206
883.336	0.05189
883.47	0.0493178
883.604	0.0507716
883.739	0.0493178
883.873	0.0502125
884.007	0.0515545
884.142	0.0495415
884.276	0.050548
884.41	0.0494297
884.544	0.0509953
884.679	0.0504361
884.813	0.049877
884.947	0.0497652
885.081	0.05189
885.216	0.0523373
885.35	0.0508835
885.484	0.0514426
885.618	0.0509953
885.753	0.0507716
885.887	0.0515545
886.021	0.0496533
886.155	0.050548
886.29	0.0513308
886.424	0.0502125
886.558	0.0513308
886.693	0.0495415
886.827	0.0496533
886.961	0.050548
887.095	0.0504361
887.23	0.0514426
887.364	0.0521136
887.498	0.0508835
887.632	0.0511071
887.767	0.0501006
887.901	0.0508835
888.035	0.0502125
888.169	0.0515545
888.304	0.05189
888.438	0.0496533
888.572	0.0509953
888.706	0.0506598
888.841	0.0502125
888.975	0.0502125
889.109	0.0515545
889.243	0.050548
889.378	0.0503243
889.512	0.0522255
889.646	0.0513308
889.78	0.050548
889.915	0.0494297
890.049	0.0508835
890.183	0.0497652
890.317	0.0499888
890.452	0.0497652
890.586	0.0520018
890.72	0.050548
890.854	0.0504361
890.989	0.0504361
891.123	0.051219
891.257	0.0515545
891.391	0.0511071
891.526	0.0497652
891.66	0.0517781
891.794	0.050548
891.928	0.0521136
892.063	0.0508835
892.197	0.0508835
892.331	0.0496533
892.465	0.050548
892.6	0.0515545
892.734	0.0508835
892.868	0.0508835
893.002	0.0506598
893.137	0.0503243
893.271	0.0501006
893.405	0.0508835
893.539	0.0507716
893.674	0.0522255
893.808	0.049877
893.942	0.0516663
894.076	0.0499888
894.21	0.0508835
894.345	0.0501006
894.479	0.0522255
894.613	0.0503243
894.747	0.0517781
894.882	0.0515545
895.016	0.049206
895.15	0.0514426
895.284	0.0516663
895.419	0.0508835
895.553	0.0504361
895.687	0.0499888
895.821	0.0509953
895.956	0.0497652
896.09	0.0506598
896.224	0.0509953
896.358	0.0504361
896.492	0.0503243
896.627	0.051219
896.761	0.0515545
896.895	0.050548
897.029	0.0521136
897.164	0.0499888
897.298	0.0509953
897.432	0.0502125
897.566	0.0513308
897.701	0.0494297
897.835	0.0484232
897.969	0.050548
898.103	0.0493178
898.237	0.0499888
898.372	0.0496533
898.506	0.050548
898.64	0.0496533
898.774	0.0516663
898.909	0.0499888
899.043	0.0517781
899.177	0.050548
899.311	0.0525609
899.445	0.049206
899.58	0.05189
899.714	0.0501006
899.848	0.0522255
899.982	0.0503243
900.117	0.0494297
900.251	0.0499888
900.385	0.0516663
900.519	0.0502125
900.653	0.0497652
900.788	0.0508835
900.922	0.0511071
901.056	0.051219
901.19	0.050548
901.325	0.0507716
901.459	0.0507716
901.593	0.0513308
901.727	0.0499888
901.861	0.0494297
901.996	0.0508835
902.13	0.049877
902.264	0.0522255
902.398	0.0511071
902.532	0.0509953
902.667	0.0497652
902.801	0.050548
902.935	0.0508835
903.069	0.0515545
903.204	0.0525609
903.338	0.0508835
903.472	0.0503243
903.606	0.0509953
903.74	0.0489823
903.875	0.049877
904.009	0.0522255
904.143	0.0526728
904.277	0.0508835
904.411	0.0511071
904.546	0.0507716
904.68	0.0508835
904.814	0.050548
904.948	0.0503243
905.082	0.05189
905.217	0.050548
905.351	0.0502125
905.485	0.0508835
905.619	0.051219
905.753	0.0489823
905.888	0.0514426
906.022	0.0496533
906.156	0.0503243
906.29	0.0493178
906.424	0.0521136
906.559	0.0509953
906.693	0.0506598
906.827	0.0504361
906.961	0.0516663
907.095	0.0506598
907.23	0.0501006
907.364	0.0515545
907.498	0.0502125
907.632	0.0502125
907.766	0.0501006
907.901	0.051219
908.035	0.050548
908.169	0.050548
908.303	0.0502125
908.437	0.051219
908.572	0.0513308
908.706	0.0506598
908.84	0.0502125
908.974	0.0506598
909.108	0.05189
909.243	0.0487587
909.377	0.0513308
909.511	0.0509953
909.645	0.0511071
909.779	0.0499888
909.914	0.0511071
910.048	0.051219
910.182	0.0502125
910.316	0.0506598
910.45	0.050548
910.585	0.0504361
910.719	0.0513308
910.853	0.0509953
910.987	0.0501006
911.121	0.0504361
911.255	0.0508835
911.39	0.0508835
911.524	0.0503243
911.658	0.0509953
911.792	0.050548
911.926	0.0503243
912.061	0.0503243
912.195	0.0496533
912.329	0.0517781
912.463	0.0499888
912.597	0.0514426
912.732	0.0497652
912.866	0.0516663
913	0.0517781
913.134	0.0508835
913.268	0.0503243
913.402	0.0503243
913.537	0.0502125
913.671	0.0501006
913.805	0.0506598
913.939	0.0495415
914.073	0.0507716
914.208	0.0514426
914.342	0.0507716
914.476	0.0514426
914.61	0.0521136
914.744	0.0503243
914.878	0.0503243
915.013	0.0509953
915.147	0.049877
915.281	0.0514426
915.415	0.0513308
915.549	0.0503243
915.683	0.0502125
915.818	0.0503243
915.952	0.0527846
916.086	0.0507716
916.22	0.0497652
916.354	0.0508835
916.488	0.0509953
916.623	0.048535
916.757	0.0508835
916.891	0.050548
917.025	0.0499888
917.159	0.051219
917.293	0.0490942
917.428	0.049877
917.562	0.0503243
917.696	0.050548
917.83	0.0514426
917.964	0.050548
918.098	0.0514426
918.233	0.0503243
918.367	0.0502125
918.501	0.0490942
918.635	0.0515545
918.769	0.0499888
918.903	0.0516663
919.038	0.0502125
919.172	0.050548
919.306	0.0521136
919.44	0.0496533
919.574	0.0511071
919.708	0.0504361
919.843	0.0507716
919.977	0.0504361
920.111	0.050548
920.245	0.0496533
920.379	0.0508835
920.513	0.0487587
920.648	0.0517781
920.782	0.0502125
920.916	0.0504361
921.05	0.0495415
921.184	0.0488705
921.318	0.0506598
921.453	0.0513308
921.587	0.0499888
921.721	0.051219
921.855	0.0508835
921.989	0.050548
922.123	0.0514426
922.257	0.0514426
922.392	0.0507716
922.526	0.0508835
922.66	0.0503243
922.794	0.050548
922.928	0.049877
923.062	0.0513308
923.197	0.0521136
923.331	0.0507716
923.465	0.0506598
923.599	0.0495415
923.733	0.0494297
923.867	0.0530083
924.001	0.0507716
924.136	0.0507716
924.27	0.0506598
924.404	0.0516663
924.538	0.0521136
924.672	0.0502125
924.806	0.0521136
924.94	0.049206
925.075	0.0508835
925.209	0.0517781
925.343	0.0497652
925.477	0.0514426
925.611	0.0527846
925.745	0.0516663
925.879	0.05189
926.014	0.0511071
926.148	0.0513308
926.282	0.0509953
926.416	0.0486468
926.55	0.0503243
926.684	0.0523373
926.818	0.0514426
926.953	0.0515545
927.087	0.0516663
927.221	0.0501006
927.355	0.0497652
927.489	0.051219
927.623	0.0502125
927.757	0.0513308
927.892	0.0507716
928.026	0.0523373
928.16	0.051219
928.294	0.0526728
928.428	0.050548
928.562	0.0515545
928.696	0.0507716
928.831	0.0503243
928.965	0.0508835
929.099	0.0508835
929.233	0.0508835
929.367	0.0501006
929.501	0.0508835
929.635	0.0508835
929.769	0.051219
929.904	0.0493178
930.038	0.0514426
930.172	0.0504361
930.306	0.0514426
930.44	0.0511071
930.574	0.0504361
930.708	0.0507716
930.843	0.0503243
930.977	0.0496533
931.111	0.0506598
931.245	0.0511071
931.379	0.0507716
931.513	0.0509953
931.647	0.0520018
931.781	0.0494297
931.916	0.0502125
932.05	0.0511071
932.184	0.0499888
932.318	0.051219
932.452	0.051219
932.586	0.0499888
932.72	0.0508835
932.854	0.0508835
932.989	0.051219
933.123	0.0496533
933.257	0.0507716
933.391	0.0509953
933.525	0.0513308
933.659	0.049206
933.793	0.0497652
933.927	0.049877
934.061	0.0503243
934.196	0.0520018
934.33	0.051219
934.464	0.0514426
934.598	0.0504361
934.732	0.0511071
934.866	0.0501006
935	0.0515545
935.134	0.0504361
935.269	0.0499888
935.403	0.050548
935.537	0.05189
935.671	0.0506598
935.805	0.049877
935.939	0.0494297
936.073	0.0521136
936.207	0.0501006
936.341	0.0504361
936.476	0.0516663
936.61	0.0511071
936.744	0.0509953
936.878	0.051219
937.012	0.0516663
937.146	0.0499888
937.28	0.0514426
937.414	0.0515545
937.548	0.0508835
937.683	0.0506598
937.817	0.0496533
937.951	0.0504361
938.085	0.0513308
938.219	0.0497652
938.353	0.0506598
938.487	0.0493178
938.621	0.0499888
938.755	0.0513308
938.889	0.051219
939.024	0.0514426
939.158	0.0484232
939.292	0.0502125
939.426	0.0511071
939.56	0.0513308
939.694	0.0496533
939.828	0.0501006
939.962	0.0507716
940.096	0.0514426
940.231	0.0494297
940.365	0.049877
940.499	0.0516663
940.633	0.0509953
940.767	0.0507716
940.901	0.051219
941.035	0.0509953
941.169	0.0508835
941.303	0.0495415
941.437	0.049877
941.571	0.0503243
941.706	0.0517781
941.84	0.0501006
941.974	0.0514426
942.108	0.0487587
942.242	0.0496533
942.376	0.051219
942.51	0.0514426
942.644	0.0509953
942.778	0.0496533
942.912	0.0516663
943.047	0.0497652
943.181	0.0506598
943.315	0.05189
943.449	0.0506598
943.583	0.0501006
943.717	0.049877
943.851	0.050548
943.985	0.0513308
944.119	0.0509953
944.253	0.051219
944.387	0.0501006
944.522	0.0506598
944.656	0.0521136
944.79	0.050548
944.924	0.0507716
945.058	0.0508835
945.192	0.0501006
945.326	0.0516663
945.46	0.0502125
945.594	0.0488705
945.728	0.0494297
945.862	0.0503243
945.996	0.0499888
946.131	0.0508835
946.265	0.0526728
946.399	0.0506598
946.533	0.0514426
946.667	0.0508835
946.801	0.0501006
946.935	0.051219
947.069	0.049877
947.203	0.0516663
947.337	0.051219
947.471	0.0504361
947.605	0.0528964
947.739	0.0516663
947.874	0.0503243
948.008	0.0508835
948.142	0.0513308
948.276	0.0508835
948.41	0.051219
948.544	0.0506598
948.678	0.0517781
948.812	0.0490942
948.946	0.0507716
949.08	0.0513308
949.214	0.0507716
949.348	0.0509953
949.482	0.0511071
949.617	0.049206
949.751	0.0513308
949.885	0.0509953
950.019	0.0507716
950.153	0.0507716
950.287	0.0513308
950.421	0.0503243
950.555	0.0516663
950.689	0.0501006
950.823	0.0495415
950.957	0.0515545
951.091	0.0506598
951.225	0.0502125
951.359	0.0504361
951.493	0.051219
951.628	0.0495415
951.762	0.0514426
951.896	0.0507716
952.03	0.0506598
952.164	0.0522255
952.298	0.0508835
952.432	0.0511071
952.566	0.0507716
952.7	0.0504361
952.834	0.0489823
952.968	0.05189
953.102	0.0506598
953.236	0.0508835
953.37	0.0514426
953.504	0.0501006
953.639	0.0511071
953.773	0.0503243
953.907	0.049877
954.041	0.0495415
954.175	0.0503243
954.309	0.0506598
954.443	0.0497652
954.577	0.0493178
954.711	0.0489823
954.845	0.05189
954.979	0.0499888
955.113	0.0509953
955.247	0.049877
955.381	0.0502125
955.515	0.0514426
955.649	0.0508835
955.783	0.049206
955.917	0.0502125
956.052	0.0497652
956.186	0.0513308
956.32	0.0524491
956.454	0.0503243
956.588	0.0502125
956.722	0.049206
956.856	0.0497652
956.99	0.049877
957.124	0.0524491
957.258	0.0501006
957.392	0.0496533
957.526	0.0517781
957.66	0.0513308
957.794	0.0504361
957.928	0.0513308
958.062	0.0509953
958.196	0.0508835
958.33	0.0509953
958.464	0.0504361
958.598	0.0517781
958.733	0.0508835
958.867	0.050548
959.001	0.0509953
959.135	0.0499888
959.269	0.0515545
959.403	0.0493178
959.537	0.0503243
959.671	0.0511071
959.805	0.0506598
959.939	0.0509953
960.073	0.0504361
960.207	0.0513308
960.341	0.050548
960.475	0.049877
960.609	0.0507716
960.743	0.0508835
960.877	0.0516663
961.011	0.0503243
961.145	0.0521136
961.279	0.0504361
961.413	0.0516663
961.547	0.0502125
961.681	0.0495415
961.815	0.0508835
961.949	0.0514426
962.083	0.0508835
962.218	0.0504361
962.352	0.0496533
962.486	0.0495415
962.62	0.0489823
962.754	0.0506598
962.888	0.0502125
963.022	0.0521136
963.156	0.051219
963.29	0.05189
963.424	0.0504361
963.558	0.0503243
963.692	0.0517781
963.826	0.0509953
963.96	0.0509953
964.094	0.0504361
964.228	0.0511071
964.362	0.0517781
964.496	0.0509953
964.63	0.0494297
964.764	0.0511071
964.898	0.0517781
965.032	0.0503243
965.166	0.0494297
965.3	0.0507716
965.434	0.0509953
965.568	0.0501006
965.702	0.0499888
965.836	0.0531201
965.97	0.0521136
966.104	0.0515545
966.238	0.0525609
966.372	0.0496533
966.506	0.050548
966.64	0.0509953
966.774	0.0513308
966.908	0.050548
967.043	0.0508835
967.177	0.049877
967.311	0.05189
967.445	0.0513308
967.579	0.0520018
967.713	0.0495415
967.847	0.0502125
967.981	0.0516663
968.115	0.0522255
968.249	0.0495415
968.383	0.050548
968.517	0.0495415
968.651	0.0509953
968.785	0.0499888
968.919	0.0493178
969.053	0.0513308
969.187	0.0531201
969.321	0.0494297
969.455	0.0497652
969.589	0.0516663
969.723	0.0493178
969.857	0.0513308
969.991	0.0503243
970.125	0.051219
970.259	0.0507716
970.393	0.0530083
970.527	0.0513308
970.661	0.049877
970.795	0.051219
970.929	0.0495415
971.063	0.0499888
971.197	0.0520018
971.331	0.050548
971.465	0.050548
971.599	0.0513308
971.733	0.0508835
971.867	0.0513308
972.001	0.0509953
972.135	0.0494297
972.269	0.050548
972.403	0.0504361
972.537	0.0506598
972.671	0.0516663
972.805	0.0508835
972.939	0.050548
973.073	0.0502125
973.207	0.0517781
973.341	0.050548
973.475	0.0504361
973.609	0.0509953
973.743	0.050548
973.877	0.049206
974.011	0.0508835
974.145	0.049877
974.279	0.0508835
974.413	0.0515545
974.547	0.0524491
974.681	0.0502125
974.815	0.0504361
974.949	0.0513308
975.083	0.0511071
975.217	0.0502125
975.351	0.0506598
975.485	0.0503243
975.619	0.0515545
975.753	0.0502125
975.887	0.0499888
976.021	0.050548
976.155	0.0511071
976.289	0.0520018
976.423	0.0494297
976.557	0.0521136
976.691	0.0497652
976.825	0.0509953
976.959	0.0514426
977.093	0.050548
977.227	0.0507716
977.361	0.0513308
977.495	0.0504361
977.629	0.0511071
977.763	0.0514426
977.897	0.049877
978.031	0.0513308
978.165	0.0508835
978.299	0.0526728
978.433	0.0513308
978.567	0.0489823
978.701	0.0515545
978.835	0.0496533
978.969	0.0506598
979.103	0.0503243
979.237	0.0514426
979.371	0.0521136
979.505	0.050548
979.639	0.049877
979.773	0.0502125
979.907	0.0511071
980.041	0.0499888
980.175	0.050548
980.308	0.0521136
980.442	0.0509953
980.576	0.0525609
980.71	0.0516663
980.844	0.0502125
980.978	0.0501006
981.112	0.0508835
981.246	0.0517781
981.38	0.050548
981.514	0.0509953
981.648	0.0509953
981.782	0.0497652
981.916	0.0517781
982.05	0.0508835
982.184	0.049877
982.318	0.0516663
982.452	0.0525609
982.586	0.0489823
982.72	0.0516663
982.854	0.0516663
982.988	0.0514426
983.122	0.0489823
983.256	0.0509953
983.39	0.0504361
983.524	0.050548
983.658	0.0515545
983.792	0.0514426
983.926	0.0514426
984.06	0.0523373
984.194	0.0509953
984.328	0.050548
984.462	0.0493178
984.596	0.0516663
984.73	0.049206
984.864	0.0507716
984.998	0.0496533
985.132	0.0511071
985.265	0.0509953
985.399	0.0521136
985.533	0.0506598
985.667	0.0506598
985.801	0.0511071
985.935	0.0496533
986.069	0.0515545
986.203	0.0516663
986.337	0.0508835
986.471	0.049877
986.605	0.0490942
986.739	0.0509953
986.873	0.0499888
987.007	0.0514426
987.141	0.0503243
987.275	0.051219
987.409	0.0495415
987.543	0.0511071
987.677	0.0515545
987.811	0.0494297
987.945	0.0513308
988.079	0.0502125
988.213	0.0504361
988.347	0.0501006
988.481	0.05189
988.614	0.0509953
988.748	0.0514426
988.882	0.049877
989.016	0.0497652
989.15	0.0514426
989.284	0.0488705
989.418	0.0511071
989.552	0.0501006
989.686	0.050548
989.82	0.0509953
989.954	0.0499888
990.088	0.0517781
990.222	0.051219
990.356	0.050548
990.49	0.0514426
990.624	0.0488705
990.758	0.049877
990.892	0.0511071
991.026	0.049877
991.16	0.0503243
991.294	0.049206
991.427	0.0497652
991.561	0.0506598
991.695	0.0508835
991.829	0.0513308
991.963	0.0521136
992.097	0.0502125
992.231	0.0497652
992.365	0.05189
992.499	0.0499888
992.633	0.0507716
992.767	0.0513308
992.901	0.0506598
993.035	0.0514426
993.169	0.0496533
993.303	0.0509953
993.437	0.0527846
993.571	0.0495415
993.704	0.05189
993.838	0.049877
993.972	0.050548
994.106	0.050548
994.24	0.0517781
994.374	0.0507716
994.508	0.050548
994.642	0.0516663
994.776	0.0513308
994.91	0.0520018
995.044	0.0520018
995.178	0.0506598
995.312	0.0499888
995.446	0.0514426
995.58	0.0504361
995.714	0.0508835
995.847	0.0495415
995.981	0.0513308
996.115	0.0501006
996.249	0.0508835
996.383	0.0520018
996.517	0.0509953
996.651	0.0494297
996.785	0.0502125
996.919	0.0509953
997.053	0.0493178
997.187	0.0508835
997.321	0.0501006
997.455	0.0507716
997.589	0.049877
997.722	0.050548
997.856	0.0497652
997.99	0.0516663
998.124	0.0508835
998.258	0.0504361
998.392	0.051219
998.526	0.0517781
998.66	0.0503243
998.794	0.0522255
998.928	0.0501006
999.062	0.049206
999.196	0.0509953
999.33	0.0521136
999.464	0.0497652
999.597	0.0514426
999.731	0.0506598
999.865	0.0513308
999.999	0.0511071
1000.13	0.050548
1000.27	0.0516663
1000.4	0.0507716
1000.53	0.0493178
1000.67	0.0503243
1000.8	0.0490942
1000.94	0.0499888
1001.07	0.0508835
1001.2	0.0508835
1001.34	0.0515545
1001.47	0.0496533
1001.61	0.0501006
1001.74	0.0502125
1001.87	0.0513308
1002.01	0.051219
1002.14	0.0490942
1002.28	0.0504361
1002.41	0.0503243
1002.54	0.0504361
1002.68	0.0504361
1002.81	0.049206
1002.95	0.0509953
1003.08	0.0499888
1003.21	0.0504361
1003.35	0.0527846
1003.48	0.0507716
1003.61	0.0502125
1003.75	0.0524491
1003.88	0.0481995
1004.02	0.0513308
1004.15	0.0521136
1004.28	0.0506598
1004.42	0.0501006
1004.55	0.0517781
1004.69	0.0514426
1004.82	0.049877
1004.95	0.0521136
1005.09	0.0515545
1005.22	0.0507716
1005.36	0.0513308
1005.49	0.0508835
1005.62	0.0504361
1005.76	0.0511071
1005.89	0.0511071
1006.03	0.0515545
1006.16	0.0509953
1006.29	0.0511071
1006.43	0.051219
1006.56	0.0521136
1006.69	0.0517781
1006.83	0.0513308
1006.96	0.0502125
1007.1	0.0507716
1007.23	0.0520018
1007.36	0.0504361
1007.5	0.049877
1007.63	0.0511071
1007.77	0.0508835
1007.9	0.0497652
1008.03	0.0520018
1008.17	0.0503243
1008.3	0.0520018
1008.44	0.0499888
1008.57	0.0514426
1008.7	0.0514426
1008.84	0.0507716
1008.97	0.0493178
1009.1	0.0511071
1009.24	0.0504361
1009.37	0.0506598
1009.51	0.0503243
1009.64	0.049206
1009.77	0.0524491
1009.91	0.0486468
1010.04	0.051219
1010.18	0.049877
1010.31	0.0515545
1010.44	0.0508835
1010.58	0.0511071
1010.71	0.0509953
1010.85	0.0496533
1010.98	0.049877
1011.11	0.0495415
1011.25	0.051219
1011.38	0.0497652
1011.51	0.0497652
1011.65	0.0520018
1011.78	0.0508835
1011.92	0.0526728
1012.05	0.0506598
1012.18	0.051219
1012.32	0.0523373
1012.45	0.0504361
1012.59	0.050548
1012.72	0.0511071
1012.85	0.0499888
1012.99	0.0504361
1013.12	0.051219
1013.26	0.0524491
1013.39	0.0508835
1013.52	0.0520018
1013.66	0.0508835
1013.79	0.0525609
1013.92	0.0514426
1014.06	0.0525609
1014.19	0.0513308
1014.33	0.051219
1014.46	0.0501006
1014.59	0.0502125
1014.73	0.0479758
1014.86	0.0514426
1015	0.0503243
1015.13	0.0499888
1015.26	0.0514426
1015.4	0.0489823
1015.53	0.0514426
1015.67	0.0508835
1015.8	0.0507716
1015.93	0.0507716
1016.07	0.0507716
1016.2	0.0504361
1016.33	0.0504361
1016.47	0.0513308
1016.6	0.0522255
1016.74	0.0503243
1016.87	0.049877
1017	0.051219
1017.14	0.0509953
1017.27	0.050548
1017.41	0.0496533
1017.54	0.051219
1017.67	0.0501006
1017.81	0.0507716
1017.94	0.0506598
1018.07	0.0506598
1018.21	0.0508835
1018.34	0.05189
1018.48	0.0501006
1018.61	0.0507716
1018.74	0.0509953
1018.88	0.0504361
1019.01	0.0508835
1019.15	0.0497652
1019.28	0.0507716
1019.41	0.0509953
1019.55	0.0495415
1019.68	0.0513308
1019.82	0.0516663
1019.95	0.051219
1020.08	0.0511071
1020.22	0.0508835
1020.35	0.0516663
1020.48	0.050548
1020.62	0.0516663
1020.75	0.0504361
1020.89	0.0507716
1021.02	0.0502125
1021.15	0.0521136
1021.29	0.0514426
1021.42	0.0501006
1021.56	0.0516663
1021.69	0.05189
1021.82	0.0504361
1021.96	0.0497652
1022.09	0.0515545
1022.22	0.0514426
1022.36	0.0507716
1022.49	0.051219
1022.63	0.05189
1022.76	0.049877
1022.89	0.0496533
1023.03	0.0497652
1023.16	0.0504361
1023.3	0.0499888
1023.43	0.0520018
1023.56	0.051219
1023.7	0.0515545
1023.83	0.0504361
1023.96	0.0502125
1024.1	0.0517781
1024.23	0.0504361
1024.37	0.0504361
1024.5	0.0516663
1024.63	0.0509953
1024.77	0.0497652
1024.9	0.0497652
1025.04	0.0502125
1025.17	0.0494297
1025.3	0.0507716
1025.44	0.050548
1025.57	0.050548
1025.7	0.0515545
1025.84	0.0509953
1025.97	0.0497652
1026.11	0.0501006
1026.24	0.0509953
1026.37	0.0515545
1026.51	0.049877
1026.64	0.0524491
1026.78	0.0508835
1026.91	0.0511071
1027.04	0.0507716
1027.18	0.0509953
1027.31	0.0514426
1027.44	0.0516663
1027.58	0.0501006
1027.71	0.0501006
1027.85	0.0501006
1027.98	0.0508835
1028.11	0.0508835
1028.25	0.0524491
1028.38	0.0511071
1028.52	0.0520018
1028.65	0.0490942
1028.78	0.051219
1028.92	0.0503243
1029.05	0.0527846
1029.18	0.0513308
1029.32	0.050548
1029.45	0.0516663
1029.59	0.051219
1029.72	0.0503243
1029.85	0.0524491
1029.99	0.0507716
1030.12	0.048535
1030.26	0.0489823
1030.39	0.0495415
1030.52	0.0499888
1030.66	0.0520018
1030.79	0.0502125
1030.92	0.0517781
1031.06	0.050548
1031.19	0.0503243
1031.33	0.0509953
1031.46	0.050548
1031.59	0.0507716
1031.73	0.0507716
1031.86	0.0496533
1031.99	0.0508835
1032.13	0.051219
1032.26	0.049877
1032.4	0.0494297
1032.53	0.0513308
1032.66	0.0495415
1032.8	0.0502125
1032.93	0.05189
1033.07	0.0524491
1033.2	0.0513308
1033.33	0.0508835
1033.47	0.0496533
1033.6	0.0508835
1033.73	0.0507716
1033.87	0.0507716
1034	0.0521136
1034.14	0.050548
1034.27	0.0504361
1034.4	0.0502125
1034.54	0.0516663
1034.67	0.0523373
1034.81	0.0490942
1034.94	0.0501006
1035.07	0.050548
1035.21	0.0511071
1035.34	0.0513308
1035.47	0.0515545
1035.61	0.0506598
1035.74	0.0502125
1035.88	0.0504361
1036.01	0.049877
1036.14	0.050548
1036.28	0.0511071
1036.41	0.0493178
1036.54	0.0493178
1036.68	0.0499888
1036.81	0.0489823
1036.95	0.0488705
1037.08	0.0511071
1037.21	0.051219
1037.35	0.0493178
1037.48	0.0511071
1037.62	0.049877
1037.75	0.0521136
1037.88	0.0499888
1038.02	0.0495415
1038.15	0.0494297
1038.28	0.0513308
1038.42	0.0522255
1038.55	0.0515545
1038.69	0.05189
1038.82	0.049877
1038.95	0.050548
1039.09	0.0507716
1039.22	0.0511071
1039.35	0.0504361
1039.49	0.0517781
1039.62	0.05189
1039.76	0.0496533
1039.89	0.0509953
1040.02	0.050548
1040.16	0.0495415
1040.29	0.0509953
1040.43	0.0517781
1040.56	0.0520018
1040.69	0.0504361
1040.83	0.050548
1040.96	0.0514426
1041.09	0.0509953
1041.23	0.0494297
1041.36	0.0503243
1041.5	0.0516663
1041.63	0.051219
1041.76	0.051219
1041.9	0.0509953
1042.03	0.0513308
1042.16	0.051219
1042.3	0.0504361
1042.43	0.0509953
1042.57	0.0508835
1042.7	0.0502125
1042.83	0.051219
1042.97	0.05189
1043.1	0.0516663
1043.23	0.0506598
1043.37	0.0507716
1043.5	0.0507716
1043.64	0.0504361
1043.77	0.049877
1043.9	0.0507716
1044.04	0.0496533
1044.17	0.0515545
1044.31	0.0499888
1044.44	0.0515545
1044.57	0.049206
1044.71	0.0527846
1044.84	0.0523373
1044.97	0.0507716
1045.11	0.0494297
1045.24	0.0508835
1045.38	0.0490942
1045.51	0.0521136
1045.64	0.0508835
1045.78	0.0507716
1045.91	0.05189
1046.04	0.0508835
1046.18	0.049877
1046.31	0.0513308
1046.45	0.050548
1046.58	0.049877
1046.71	0.0487587
1046.85	0.0507716
1046.98	0.0525609
1047.11	0.0511071
1047.25	0.0506598
1047.38	0.0504361
1047.52	0.0511071
1047.65	0.0509953
1047.78	0.0516663
1047.92	0.0502125
1048.05	0.0504361
1048.18	0.049877
1048.32	0.049877
1048.45	0.0504361
1048.59	0.0513308
1048.72	0.0516663
1048.85	0.0525609
1048.99	0.0511071
1049.12	0.0507716
1049.25	0.049877
1049.39	0.0511071
1049.52	0.0507716
1049.66	0.0507716
1049.79	0.049877
1049.92	0.051219
1050.06	0.049877
1050.19	0.0503243
1050.33	0.0506598
1050.46	0.0499888
1050.59	0.0511071
1050.73	0.0504361
1050.86	0.0520018
1050.99	0.0508835
1051.13	0.0502125
1051.26	0.0502125
1051.4	0.0497652
1051.53	0.0502125
1051.66	0.0520018
1051.8	0.0517781
1051.93	0.0503243
1052.06	0.049206
1052.2	0.0490942
1052.33	0.0504361
1052.47	0.050548
1052.6	0.0509953
1052.73	0.051219
1052.87	0.0508835
1053	0.0516663
1053.13	0.0513308
1053.27	0.0513308
1053.4	0.0520018
1053.54	0.0504361
1053.67	0.0504361
1053.8	0.0503243
1053.94	0.0503243
1054.07	0.051219
1054.2	0.0516663
1054.34	0.0522255
1054.47	0.0508835
1054.61	0.0502125
1054.74	0.0516663
1054.87	0.051219
1055.01	0.0495415
1055.14	0.0507716
1055.27	0.0508835
1055.41	0.051219
1055.54	0.0511071
1055.68	0.0509953
1055.81	0.0520018
1055.94	0.0513308
1056.08	0.0501006
1056.21	0.0515545
1056.34	0.0509953
1056.48	0.0496533
1056.61	0.0507716
1056.75	0.051219
1056.88	0.0514426
1057.01	0.0508835
1057.15	0.0497652
1057.28	0.0507716
1057.41	0.050548
1057.55	0.0511071
1057.68	0.0521136
1057.82	0.0515545
1057.95	0.0522255
1058.08	0.05189
1058.22	0.049877
1058.35	0.0502125
1058.48	0.0506598
1058.62	0.0499888
1058.75	0.0508835
1058.89	0.050548
1059.02	0.051219
1059.15	0.0504361
1059.29	0.0508835
1059.42	0.0520018
1059.55	0.0516663
1059.69	0.0513308
1059.82	0.0509953
1059.96	0.0502125
1060.09	0.0507716
1060.22	0.0503243
1060.36	0.0490942
1060.49	0.0507716
1060.62	0.0511071
1060.76	0.049877
1060.89	0.0507716
1061.03	0.05189
1061.16	0.0513308
1061.29	0.0495415
1061.43	0.0503243
1061.56	0.0507716
1061.69	0.0508835
1061.83	0.0503243
1061.96	0.050548
1062.1	0.0508835
1062.23	0.0495415
1062.36	0.0503243
1062.5	0.0524491
1062.63	0.0487587
1062.76	0.051219
1062.9	0.0501006
1063.03	0.0508835
1063.17	0.0520018
1063.3	0.0513308
1063.43	0.0484232
1063.57	0.0520018
1063.7	0.050548
1063.83	0.0513308
1063.97	0.0504361
1064.1	0.0522255
1064.23	0.0504361
1064.37	0.049877
1064.5	0.0506598
1064.64	0.0489823
1064.77	0.0523373
1064.9	0.0511071
1065.04	0.05189
1065.17	0.0495415
1065.3	0.0511071
1065.44	0.0513308
1065.57	0.0501006
1065.71	0.0489823
1065.84	0.050548
1065.97	0.0514426
1066.11	0.0506598
1066.24	0.0490942
1066.37	0.0504361
1066.51	0.0509953
1066.64	0.0496533
1066.78	0.051219
1066.91	0.0506598
1067.04	0.0507716
1067.18	0.0507716
1067.31	0.0488705
1067.44	0.0516663
1067.58	0.0506598
1067.71	0.049877
1067.85	0.0509953
1067.98	0.0515545
1068.11	0.049877
1068.25	0.0525609
1068.38	0.0509953
1068.51	0.0517781
1068.65	0.0503243
1068.78	0.0495415
1068.92	0.050548
1069.05	0.0501006
1069.18	0.050548
1069.32	0.0507716
1069.45	0.0503243
1069.58	0.0513308
1069.72	0.0516663
1069.85	0.0488705
1069.98	0.0496533
1070.12	0.05189
1070.25	0.0499888
1070.39	0.0504361
1070.52	0.0502125
1070.65	0.0511071
1070.79	0.0511071
1070.92	0.0504361
1071.05	0.05189
1071.19	0.051219
1071.32	0.0503243
1071.46	0.0517781
1071.59	0.0514426
1071.72	0.0502125
1071.86	0.0496533
1071.99	0.0502125
1072.12	0.0496533
1072.26	0.0509953
1072.39	0.0480877
1072.53	0.051219
1072.66	0.0501006
1072.79	0.0502125
1072.93	0.0507716
1073.06	0.0507716
1073.19	0.0503243
1073.33	0.051219
1073.46	0.0507716
1073.59	0.0522255
1073.73	0.0507716
1073.86	0.0483113
1074	0.0513308
1074.13	0.050548
1074.26	0.0513308
1074.4	0.051219
1074.53	0.0502125
1074.66	0.0517781
1074.8	0.0503243
1074.93	0.051219
1075.07	0.051219
1075.2	0.0508835
1075.33	0.0504361
1075.47	0.0506598
1075.6	0.0504361
1075.73	0.0502125
1075.87	0.0517781
1076	0.0499888
1076.14	0.051219
1076.27	0.0504361
1076.4	0.050548
1076.54	0.0511071
1076.67	0.0514426
1076.8	0.049877
1076.94	0.0502125
1077.07	0.0502125
1077.2	0.0514426
1077.34	0.049206
1077.47	0.050548
1077.61	0.0511071
1077.74	0.0509953
1077.87	0.0495415
1078.01	0.0522255
1078.14	0.0509953
1078.27	0.049877
1078.41	0.0506598
1078.54	0.0496533
1078.68	0.0530083
1078.81	0.0516663
1078.94	0.0497652
1079.08	0.051219
1079.21	0.0504361
1079.34	0.0502125
1079.48	0.0517781
1079.61	0.0503243
1079.74	0.051219
1079.88	0.049877
1080.01	0.0513308
1080.15	0.0532319
1080.28	0.0503243
1080.41	0.0495415
1080.55	0.0489823
1080.68	0.051219
1080.81	0.0514426
1080.95	0.0501006
1081.08	0.0497652
1081.22	0.051219
1081.35	0.0499888
1081.48	0.0508835
1081.62	0.0504361
1081.75	0.0506598
1081.88	0.0497652
1082.02	0.0508835
1082.15	0.0506598
1082.28	0.0513308
1082.42	0.050548
1082.55	0.0497652
1082.69	0.0499888
1082.82	0.0509953
1082.95	0.0513308
1083.09	0.0504361
1083.22	0.0497652
1083.35	0.0516663
1083.49	0.0504361
1083.62	0.0511071
1083.75	0.051219
1083.89	0.051219
1084.02	0.049206
1084.16	0.0504361
1084.29	0.0496533
1084.42	0.0507716
1084.56	0.049877
1084.69	0.0514426
1084.82	0.0511071
1084.96	0.0523373
1085.09	0.049206
1085.23	0.0513308
1085.36	0.0499888
1085.49	0.0516663
1085.63	0.0506598
1085.76	0.0508835
1085.89	0.0511071
1086.03	0.0513308
1086.16	0.049877
1086.29	0.051219
1086.43	0.0517781
1086.56	0.0504361
1086.7	0.051219
1086.83	0.0501006
1086.96	0.050548
1087.1	0.0502125
1087.23	0.0507716
1087.36	0.0511071
1087.5	0.0502125
1087.63	0.0521136
1087.76	0.0490942
1087.9	0.0514426
1088.03	0.0509953
1088.17	0.0516663
1088.3	0.0495415
1088.43	0.0507716
1088.57	0.0517781
1088.7	0.0531201
1088.83	0.050548
1088.97	0.0503243
1089.1	0.0507716
1089.24	0.0504361
1089.37	0.0501006
1089.5	0.0514426
1089.64	0.0516663
1089.77	0.0508835
1089.9	0.0513308
1090.04	0.0511071
1090.17	0.0517781
1090.3	0.0513308
1090.44	0.0486468
1090.57	0.0506598
1090.71	0.0506598
1090.84	0.0509953
1090.97	0.0506598
1091.11	0.0493178
1091.24	0.0494297
1091.37	0.0503243
1091.51	0.0516663
1091.64	0.0508835
1091.77	0.051219
1091.91	0.0497652
1092.04	0.0495415
1092.18	0.0503243
1092.31	0.0503243
1092.44	0.0513308
1092.58	0.0496533
1092.71	0.0499888
1092.84	0.049877
1092.98	0.05189
1093.11	0.0506598
1093.24	0.0493178
1093.38	0.049877
1093.51	0.0509953
1093.65	0.0502125
1093.78	0.0503243
1093.91	0.050548
1094.05	0.051219
1094.18	0.0495415
1094.31	0.0503243
1094.45	0.0506598
1094.58	0.049206
1094.71	0.0502125
1094.85	0.0508835
1094.98	0.0504361
1095.12	0.0497652
1095.25	0.0504361
1095.38	0.0501006
1095.52	0.0502125
1095.65	0.051219
1095.78	0.0508835
1095.92	0.0501006
1096.05	0.049206
1096.18	0.0504361
1096.32	0.050548
1096.45	0.0527846
1096.59	0.0509953
1096.72	0.0513308
1096.85	0.0504361
1096.99	0.0509953
1097.12	0.050548
1097.25	0.0508835
1097.39	0.0508835
1097.52	0.0499888
1097.65	0.0507716
1097.79	0.0521136
1097.92	0.0504361
1098.06	0.0515545
1098.19	0.0507716
1098.32	0.0487587
1098.46	0.05189
1098.59	0.0506598
1098.72	0.0507716
1098.86	0.0504361
1098.99	0.0514426
1099.12	0.0503243
1099.26	0.051219
1099.39	0.0490942
1099.53	0.0497652
1099.66	0.0502125
1099.79	0.0503243
1099.93	0.0501006
1100.06	0.0517781
1100.19	0.050548
1100.33	0.05189
1100.46	0.0511071
1100.59	0.0490942
1100.73	0.0494297
1100.86	0.0502125
1100.99	0.0488705
1101.13	0.0502125
1101.26	0.0506598
1101.4	0.0504361
1101.53	0.0501006
1101.66	0.0503243
1101.8	0.0522255
1101.93	0.0499888
1102.06	0.0501006
1102.2	0.0506598
1102.33	0.0495415
1102.46	0.051219
1102.6	0.050548
1102.73	0.0508835
1102.87	0.0503243
1103	0.0520018
1103.13	0.0506598
1103.27	0.0502125
1103.4	0.0501006
1103.53	0.0497652
1103.67	0.0522255
1103.8	0.0506598
1103.93	0.049877
1104.07	0.0497652
1104.2	0.05189
1104.34	0.051219
1104.47	0.0516663
1104.6	0.0506598
1104.74	0.051219
1104.87	0.0496533
1105	0.0513308
1105.14	0.0493178
1105.27	0.0493178
1105.4	0.050548
1105.54	0.0496533
1105.67	0.0513308
1105.8	0.0520018
1105.94	0.0499888
1106.07	0.0507716
1106.21	0.0501006
1106.34	0.0503243
1106.47	0.0504361
1106.61	0.0530083
1106.74	0.0521136
1106.87	0.051219
1107.01	0.0514426
1107.14	0.05189
1107.27	0.0501006
1107.41	0.0511071
1107.54	0.0494297

